LabVIEW Measurement	
Writer_Version	2
Reader_Version	2
Separator	Tab
Decimal_Separator	,
Multi_Headings	Yes
X_Columns	No
Time_Pref	Relative
Operator	Laboratoire
Date	2019/02/15
Time	14:59:38,9231027500200285783
***End_of_Header***	
	
Channels	6						
Samples	15	15	1000	1000	1000	1000	
Date	2019/02/15	2019/02/15	2019/02/15	2019/02/15	2019/02/15	2019/02/15	
Time	14:59:39,031436920166015625	14:59:38,9231027500200285783	14:59:39,031436920166015625	14:59:39,031436920166015625	14:59:39,031436920166015625	14:59:39,031436920166015625	
Y_Unit_Label		Volts					
X_Dimension	Time	Time	Time	Time	Time	Time	
X0	0,0000000000000000E+0	0,0000000000000000E+0	0,0000000000000000E+0	0,0000000000000000E+0	0,0000000000000000E+0	0,0000000000000000E+0	
Delta_X	1,000000	0,006667	1,000000	1,000000	1,000000	1,000000	
***End_of_Header***							
X_Value	Untitled	Tension	Untitled 1	Untitled 2	Untitled 3	Untitled 4	Comment
	0,000000	3,622148	0,000000	3,622148	0,000000	3,622148
	0,006667	-4,647534	9,333333E-5	3,527645	9,333333E-5	-13,857284
	0,013333	0,673782	0,000187	3,429410	0,000187	-29,815190
	0,020000	3,673069	0,000280	3,327543	0,000280	-44,336278
	0,026667	-4,616981	0,000373	3,222145	0,000373	-57,501684
	0,033333	0,592307	0,000467	3,113323	0,000467	-69,389091
	0,040000	3,723991	0,000560	3,001186	0,000560	-80,072848
	0,046667	-4,591520	0,000653	2,885845	0,000653	-89,624082
	0,053333	0,521017	0,000747	2,767418	0,000747	-98,110806
	0,060000	3,764728	0,000840	2,646023	0,000840	-105,598034
	0,066667	-4,560967	0,000933	2,521782	0,000933	-112,147877
	0,073333	0,444635	0,001027	2,394820	0,001027	-117,819648
	0,080000	3,810558	0,001120	2,265265	0,001120	-122,669962
	0,086667	-4,525322	0,001213	2,133246	0,001213	-126,752831
	0,093333	0,368252	0,001307	1,998897	0,001307	-130,119754
			0,001400	1,862353	0,001400	-132,819813
			0,001493	1,723751	0,001493	-134,899755
			0,001587	1,583231	0,001587	-136,404081
			0,001680	1,440933	0,001680	-137,375130
			0,001773	1,297002	0,001773	-137,853153
			0,001867	1,151581	0,001867	-137,876399
			0,001960	1,004818	0,001960	-137,481184
			0,002053	0,856860	0,002053	-136,701969
			0,002147	0,707855	0,002147	-135,571429
			0,002240	0,557955	0,002240	-134,120523
			0,002333	0,407310	0,002333	-132,378558
			0,002427	0,256071	0,002427	-130,373259
			0,002520	0,104391	0,002520	-128,130829
			0,002613	-0,047578	0,002613	-125,676008
			0,002707	-0,199682	0,002707	-123,032138
			0,002800	-0,351768	0,002800	-120,221213
			0,002893	-0,503683	0,002893	-117,263939
			0,002987	-0,655274	0,002987	-114,179787
			0,003080	-0,806389	0,003080	-110,987044
			0,003173	-0,956874	0,003173	-107,702864
			0,003267	-1,106580	0,003267	-104,343317
			0,003360	-1,255354	0,003360	-100,923433
			0,003453	-1,403046	0,003453	-97,457252
			0,003547	-1,549509	0,003547	-93,957865
			0,003640	-1,694594	0,003640	-90,437457
			0,003733	-1,838156	0,003733	-86,907349
			0,003827	-1,980049	0,003827	-83,378037
			0,003920	-2,120131	0,003920	-79,859229
			0,004013	-2,258261	0,004013	-76,359885
			0,004107	-2,394299	0,004107	-72,888250
			0,004200	-2,528108	0,004200	-69,451890
			0,004293	-2,659554	0,004293	-66,057725
			0,004387	-2,788503	0,004387	-62,712061
			0,004480	-2,914827	0,004480	-59,420619
			0,004573	-3,038397	0,004573	-56,188570
			0,004667	-3,159090	0,004667	-53,020555
			0,004760	-3,276783	0,004760	-49,920724
			0,004853	-3,391358	0,004853	-46,892753
			0,004947	-3,502700	0,004947	-43,939872
			0,005040	-3,610696	0,005040	-41,064895
			0,005133	-3,715237	0,005133	-38,270236
			0,005227	-3,816218	0,005227	-35,557937
			0,005320	-3,913537	0,005320	-32,929687
			0,005413	-4,007097	0,005413	-30,386847
			0,005507	-4,096802	0,005507	-27,930464
			0,005600	-4,182562	0,005600	-25,561296
			0,005693	-4,264291	0,005693	-23,279828
			0,005787	-4,341907	0,005787	-21,086291
			0,005880	-4,415330	0,005880	-18,980677
			0,005973	-4,484488	0,005973	-16,962759
			0,006067	-4,549309	0,006067	-15,032104
			0,006160	-4,609729	0,006160	-13,188086
			0,006253	-4,665687	0,006253	-11,429906
			0,006347	-4,717127	0,006347	-9,756602
			0,006440	-4,763995	0,006440	-8,167061
			0,006533	-4,806245	0,006533	-6,660035
			0,006627	-4,843834	0,006627	-5,234152
			0,006720	-4,876724	0,006720	-3,887924
			0,006813	-4,904882	0,006813	-2,619763
			0,006907	-4,928279	0,006907	-1,427987
			0,007000	-4,946891	0,007000	-0,310831
			0,007093	-4,960699	0,007093	0,733540
			0,007187	-4,969689	0,007187	1,707027
			0,007280	-4,973852	0,007280	2,611589
			0,007373	-4,973183	0,007373	3,449229
			0,007467	-4,967683	0,007467	4,221992
			0,007560	-4,957356	0,007560	4,931956
			0,007653	-4,942212	0,007653	5,581227
			0,007747	-4,922267	0,007747	6,171928
			0,007840	-4,897540	0,007840	6,706197
			0,007933	-4,868055	0,007933	7,186183
			0,008027	-4,833843	0,008027	7,614034
			0,008120	-4,794935	0,008120	7,991899
			0,008213	-4,751372	0,008213	8,321919
			0,008307	-4,703197	0,008307	8,606224
			0,008400	-4,650457	0,008400	8,846930
			0,008493	-4,593205	0,008493	9,046134
			0,008587	-4,531497	0,008587	9,205909
			0,008680	-4,465396	0,008680	9,328305
			0,008773	-4,394967	0,008773	9,415340
			0,008867	-4,320279	0,008867	9,469004
			0,008960	-4,241409	0,008960	9,491251
			0,009053	-4,158433	0,009053	9,484000
			0,009147	-4,071435	0,009147	9,449130
			0,009240	-3,980502	0,009240	9,388480
			0,009333	-3,885723	0,009333	9,303847
			0,009427	-3,787194	0,009427	9,196986
			0,009520	-3,685012	0,009520	9,069605
			0,009613	-3,579279	0,009613	8,923366
			0,009707	-3,470100	0,009707	8,759884
			0,009800	-3,357585	0,009800	8,580725
			0,009893	-3,241844	0,009893	8,387408
			0,009987	-3,122994	0,009987	8,181401
			0,010080	-3,001153	0,010080	7,964122
			0,010173	-2,876441	0,010173	7,736938
			0,010267	-2,748984	0,010267	7,501165
			0,010360	-2,618907	0,010360	7,258071
			0,010453	-2,486341	0,010453	7,008870
			0,010547	-2,351416	0,010547	6,754727
			0,010640	-2,214268	0,010640	6,496754
			0,010733	-2,075033	0,010733	6,236015
			0,010827	-1,933848	0,010827	5,973523
			0,010920	-1,790855	0,010920	5,710240
			0,011013	-1,646196	0,011013	5,447082
			0,011107	-1,500013	0,011107	5,184913
			0,011200	-1,352453	0,011200	4,924550
			0,011293	-1,203662	0,011293	4,666763
			0,011387	-1,053788	0,011387	4,412275
			0,011480	-0,902979	0,011480	4,161763
			0,011573	-0,751386	0,011573	3,915858
			0,011667	-0,599158	0,011667	3,675148
			0,011760	-0,446447	0,011760	3,440178
			0,011853	-0,293404	0,011853	3,211449
			0,011947	-0,140181	0,011947	2,989421
			0,012040	0,013070	0,012040	2,774514
			0,012133	0,166197	0,012133	2,567108
			0,012227	0,319049	0,012227	2,367545
			0,012320	0,471474	0,012320	2,176130
			0,012413	0,623321	0,012413	1,993131
			0,012507	0,774440	0,012507	1,818780
			0,012600	0,924681	0,012600	1,653278
			0,012693	1,073895	0,012693	1,496789
			0,012787	1,221936	0,012787	1,349448
			0,012880	1,368656	0,012880	1,211360
			0,012973	1,513910	0,012973	1,082597
			0,013067	1,657556	0,013067	0,963205
			0,013160	1,799450	0,013160	0,853204
			0,013253	1,939454	0,013253	0,752584
			0,013347	2,077427	0,013347	0,661314
			0,013440	2,213236	0,013440	0,579337
			0,013533	2,346745	0,013533	0,506573
			0,013627	2,477822	0,013627	0,442923
			0,013720	2,606339	0,013720	0,388263
			0,013813	2,732169	0,013813	0,342455
			0,013907	2,855188	0,013907	0,305337
			0,014000	2,975275	0,014000	0,276735
			0,014093	3,092312	0,014093	0,256456
			0,014187	3,206183	0,014187	0,244291
			0,014280	3,316777	0,014280	0,240019
			0,014373	3,423985	0,014373	0,243406
			0,014467	3,527701	0,014467	0,254203
			0,014560	3,627824	0,014560	0,272152
			0,014653	3,724256	0,014653	0,296986
			0,014747	3,816902	0,014747	0,328425
			0,014840	3,905671	0,014840	0,366185
			0,014933	3,990476	0,014933	0,409971
			0,015027	4,071236	0,015027	0,459483
			0,015120	4,147869	0,015120	0,514415
			0,015213	4,220303	0,015213	0,574455
			0,015307	4,288465	0,015307	0,639290
			0,015400	4,352291	0,015400	0,708599
			0,015493	4,411717	0,015493	0,782063
			0,015587	4,466686	0,015587	0,859358
			0,015680	4,517144	0,015680	0,940160
			0,015773	4,563044	0,015773	1,024144
			0,015867	4,604340	0,015867	1,110986
			0,015960	4,640993	0,015960	1,200362
			0,016053	4,672967	0,016053	1,291951
			0,016147	4,700232	0,016147	1,385431
			0,016240	4,722763	0,016240	1,480485
			0,016333	4,740537	0,016333	1,576800
			0,016427	4,753539	0,016427	1,674063
			0,016520	4,761757	0,016520	1,771969
			0,016613	4,765184	0,016613	1,870216
			0,016707	4,763817	0,016707	1,968506
			0,016800	4,757658	0,016800	2,066549
			0,016893	4,746716	0,016893	2,164059
			0,016987	4,731001	0,016987	2,260757
			0,017080	4,710531	0,017080	2,356370
			0,017173	4,685326	0,017173	2,450632
			0,017267	4,655413	0,017267	2,543287
			0,017360	4,620821	0,017360	2,634082
			0,017453	4,581586	0,017453	2,722776
			0,017547	4,537748	0,017547	2,809134
			0,017640	4,489351	0,017640	2,892930
			0,017733	4,436443	0,017733	2,973946
			0,017827	4,379077	0,017827	3,051974
			0,017920	4,317312	0,017920	3,126813
			0,018013	4,251208	0,018013	3,198273
			0,018107	4,180832	0,018107	3,266173
			0,018200	4,106253	0,018200	3,330340
			0,018293	4,027547	0,018293	3,390612
			0,018387	3,944792	0,018387	3,446835
			0,018480	3,858069	0,018480	3,498866
			0,018573	3,767465	0,018573	3,546572
			0,018667	3,673069	0,018667	3,589827
			0,018760	3,574977	0,018760	3,628519
			0,018853	3,473284	0,018853	3,662542
			0,018947	3,368091	0,018947	3,691800
			0,019040	3,259503	0,019040	3,716210
			0,019133	3,147627	0,019133	3,735695
			0,019227	3,032573	0,019227	3,750188
			0,019320	2,914456	0,019320	3,759635
			0,019413	2,793392	0,019413	3,763987
			0,019507	2,669501	0,019507	3,763207
			0,019600	2,542905	0,019600	3,757266
			0,019693	2,413728	0,019693	3,746145
			0,019787	2,282099	0,019787	3,729834
			0,019880	2,148146	0,019880	3,708331
			0,019973	2,012003	0,019973	3,681644
			0,020067	1,873803	0,020067	3,649789
			0,020160	1,733682	0,020160	3,612790
			0,020253	1,591778	0,020253	3,570680
			0,020347	1,448230	0,020347	3,523499
			0,020440	1,303181	0,020440	3,471296
			0,020533	1,156772	0,020533	3,414127
			0,020627	1,009148	0,020627	3,352057
			0,020720	0,860453	0,020720	3,285156
			0,020813	0,710834	0,020813	3,213503
			0,020907	0,560437	0,020907	3,137183
			0,021000	0,409411	0,021000	3,056287
			0,021093	0,257903	0,021093	2,970915
			0,021187	0,106063	0,021187	2,881170
			0,021280	-0,045962	0,021280	2,787162
			0,021373	-0,198022	0,021373	2,689009
			0,021467	-0,349967	0,021467	2,586831
			0,021560	-0,501649	0,021560	2,480756
			0,021653	-0,652920	0,021653	2,370915
			0,021747	-0,803630	0,021747	2,257445
			0,021840	-0,953633	0,021840	2,140487
			0,021933	-1,102782	0,021933	2,020187
			0,022027	-1,250931	0,022027	1,896693
			0,022120	-1,397934	0,022120	1,770160
			0,022213	-1,543648	0,022213	1,640744
			0,022307	-1,687930	0,022307	1,508605
			0,022400	-1,830640	0,022400	1,373905
			0,022493	-1,971637	0,022493	1,236811
			0,022587	-2,110785	0,022587	1,097490
			0,022680	-2,247947	0,022680	0,956113
			0,022773	-2,382989	0,022773	0,812852
			0,022867	-2,515779	0,022867	0,667882
			0,022960	-2,646187	0,022960	0,521377
			0,023053	-2,774088	0,023053	0,373515
			0,023147	-2,899354	0,023147	0,224474
			0,023240	-3,021865	0,023240	0,074432
			0,023333	-3,141501	0,023333	-0,076432
			0,023427	-3,258146	0,023427	-0,227938
			0,023520	-3,371685	0,023520	-0,379906
			0,023613	-3,482008	0,023613	-0,532158
			0,023707	-3,589007	0,023707	-0,684514
			0,023800	-3,692579	0,023800	-0,836795
			0,023893	-3,792623	0,023893	-0,988825
			0,023987	-3,889040	0,023987	-1,140427
			0,024080	-3,981738	0,024080	-1,291425
			0,024173	-4,070626	0,024173	-1,441645
			0,024267	-4,155618	0,024267	-1,590916
			0,024360	-4,236632	0,024360	-1,739066
			0,024453	-4,313587	0,024453	-1,885928
			0,024547	-4,386411	0,024547	-2,031334
			0,024640	-4,455032	0,024640	-2,175122
			0,024733	-4,519384	0,024733	-2,317130
			0,024827	-4,579403	0,024827	-2,457199
			0,024920	-4,635033	0,024920	-2,595173
			0,025013	-4,686219	0,025013	-2,730901
			0,025107	-4,732912	0,025107	-2,864232
			0,025200	-4,775067	0,025200	-2,995020
			0,025293	-4,812643	0,025293	-3,123124
			0,025387	-4,845603	0,025387	-3,248403
			0,025480	-4,873917	0,025480	-3,370722
			0,025573	-4,897557	0,025573	-3,489950
			0,025667	-4,916500	0,025667	-3,605960
			0,025760	-4,930728	0,025760	-3,718629
			0,025853	-4,940229	0,025853	-3,827836
			0,025947	-4,944992	0,025947	-3,933468
			0,026040	-4,945015	0,026040	-4,035414
			0,026133	-4,940297	0,026133	-4,133568
			0,026227	-4,930844	0,026227	-4,227829
			0,026320	-4,916665	0,026320	-4,318100
			0,026413	-4,897774	0,026413	-4,404289
			0,026507	-4,874191	0,026507	-4,486309
			0,026600	-4,845939	0,026600	-4,564078
			0,026693	-4,813046	0,026693	-4,637518
			0,026787	-4,775544	0,026787	-4,706557
			0,026880	-4,733471	0,026880	-4,771127
			0,026973	-4,686867	0,026973	-4,831166
			0,027067	-4,635779	0,027067	-4,886617
			0,027160	-4,580258	0,027160	-4,937427
			0,027253	-4,520357	0,027253	-4,983550
			0,027347	-4,456135	0,027347	-5,024942
			0,027440	-4,387656	0,027440	-5,061567
			0,027533	-4,314986	0,027533	-5,093394
			0,027627	-4,238198	0,027627	-5,120396
			0,027720	-4,157365	0,027720	-5,142551
			0,027813	-4,072568	0,027813	-5,159842
			0,027907	-3,983890	0,027907	-5,172259
			0,028000	-3,891417	0,028000	-5,179796
			0,028093	-3,795239	0,028093	-5,182450
			0,028187	-3,695452	0,028187	-5,180226
			0,028280	-3,592152	0,028280	-5,173133
			0,028373	-3,485441	0,028373	-5,161184
			0,028467	-3,375423	0,028467	-5,144398
			0,028560	-3,262206	0,028560	-5,122798
			0,028653	-3,145900	0,028653	-5,096413
			0,028747	-3,026619	0,028747	-5,065276
			0,028840	-2,904480	0,028840	-5,029423
			0,028933	-2,779602	0,028933	-4,988898
			0,029027	-2,652108	0,029027	-4,943748
			0,029120	-2,522121	0,029120	-4,894023
			0,029213	-2,389769	0,029213	-4,839778
			0,029307	-2,255181	0,029307	-4,781075
			0,029400	-2,118489	0,029400	-4,717977
			0,029493	-1,979827	0,029493	-4,650551
			0,029587	-1,839329	0,029587	-4,578871
			0,029680	-1,697133	0,029680	-4,503012
			0,029773	-1,553379	0,029773	-4,423055
			0,029867	-1,408206	0,029867	-4,339082
			0,029960	-1,261756	0,029960	-4,251182
			0,030053	-1,114173	0,030053	-4,159446
			0,030147	-0,965600	0,030147	-4,063967
			0,030240	-0,816183	0,030240	-3,964842
			0,030333	-0,666068	0,030333	-3,862174
			0,030427	-0,515402	0,030427	-3,756066
			0,030520	-0,364331	0,030520	-3,646623
			0,030613	-0,213003	0,030613	-3,533957
			0,030707	-0,061567	0,030707	-3,418179
			0,030800	0,089830	0,030800	-3,299405
			0,030893	0,241041	0,030893	-3,177751
			0,030987	0,391916	0,030987	-3,053337
			0,031080	0,542309	0,031080	-2,926286
			0,031173	0,692073	0,031173	-2,796722
			0,031267	0,841061	0,031267	-2,664770
			0,031360	0,989127	0,031360	-2,530558
			0,031453	1,136128	0,031453	-2,394216
			0,031547	1,281919	0,031547	-2,255875
			0,031640	1,426358	0,031640	-2,115668
			0,031733	1,569302	0,031733	-1,973728
			0,031827	1,710614	0,031827	-1,830191
			0,031920	1,850154	0,031920	-1,685192
			0,032013	1,987786	0,032013	-1,538870
			0,032107	2,123375	0,032107	-1,391360
			0,032200	2,256789	0,032200	-1,242803
			0,032293	2,387897	0,032293	-1,093337
			0,032387	2,516571	0,032387	-0,943101
			0,032480	2,642685	0,032480	-0,792235
			0,032573	2,766115	0,032573	-0,640879
			0,032667	2,886741	0,032667	-0,489172
			0,032760	3,004444	0,032760	-0,337255
			0,032853	3,119109	0,032853	-0,185267
			0,032947	3,230624	0,032947	-0,033346
			0,033040	3,338880	0,033040	0,118368
			0,033133	3,443770	0,033133	0,269739
			0,033227	3,545192	0,033227	0,420627
			0,033320	3,643045	0,033320	0,570898
			0,033413	3,737235	0,033413	0,720417
			0,033507	3,827669	0,033507	0,869047
			0,033600	3,914258	0,033600	1,016658
			0,033693	3,996917	0,033693	1,163117
			0,033787	4,075564	0,033787	1,308293
			0,033880	4,150123	0,033880	1,452059
			0,033973	4,220521	0,033973	1,594287
			0,034067	4,286687	0,034067	1,734852
			0,034160	4,348558	0,034160	1,873630
			0,034253	4,406071	0,034253	2,010501
			0,034347	4,459170	0,034347	2,145344
			0,034440	4,507804	0,034440	2,278043
			0,034533	4,551923	0,034533	2,408483
			0,034627	4,591485	0,034627	2,536551
			0,034720	4,626450	0,034720	2,662137
			0,034813	4,656783	0,034813	2,785133
			0,034907	4,682455	0,034907	2,905436
			0,035000	4,703439	0,035000	3,022941
			0,035093	4,719716	0,035093	3,137550
			0,035187	4,731267	0,035187	3,249167
			0,035280	4,738082	0,035280	3,357697
			0,035373	4,740153	0,035373	3,463050
			0,035467	4,737478	0,035467	3,565138
			0,035560	4,730059	0,035560	3,663877
			0,035653	4,717902	0,035653	3,759185
			0,035747	4,701020	0,035747	3,850983
			0,035840	4,679427	0,035840	3,939199
			0,035933	4,653145	0,035933	4,023759
			0,036027	4,622199	0,036027	4,104596
			0,036120	4,586619	0,036120	4,181645
			0,036213	4,546439	0,036213	4,254845
			0,036307	4,501697	0,036307	4,324139
			0,036400	4,452438	0,036400	4,389473
			0,036493	4,398709	0,036493	4,450795
			0,036587	4,340561	0,036587	4,508059
			0,036680	4,278052	0,036680	4,561223
			0,036773	4,211242	0,036773	4,610246
			0,036867	4,140196	0,036867	4,655093
			0,036960	4,064984	0,036960	4,695732
			0,037053	3,985678	0,037053	4,732134
			0,037147	3,902356	0,037147	4,764275
			0,037240	3,815098	0,037240	4,792134
			0,037333	3,723991	0,037333	4,815694
			0,037427	3,629123	0,037427	4,834942
			0,037520	3,530585	0,037520	4,849867
			0,037613	3,428476	0,037613	4,860465
			0,037707	3,322893	0,037707	4,866733
			0,037800	3,213941	0,037800	4,868673
			0,037893	3,101726	0,037893	4,866290
			0,037987	2,986357	0,037987	4,859593
			0,038080	2,867947	0,038080	4,848595
			0,038173	2,746612	0,038173	4,833312
			0,038267	2,622471	0,038267	4,813764
			0,038360	2,495645	0,038360	4,789976
			0,038453	2,366258	0,038453	4,761974
			0,038547	2,234437	0,038547	4,729789
			0,038640	2,100310	0,038640	4,693455
			0,038733	1,964010	0,038733	4,653010
			0,038827	1,825669	0,038827	4,608495
			0,038920	1,685423	0,038920	4,559955
			0,039013	1,543410	0,039013	4,507437
			0,039107	1,399769	0,039107	4,450992
			0,039200	1,254640	0,039200	4,390676
			0,039293	1,108165	0,039293	4,326545
			0,039387	0,960490	0,039387	4,258661
			0,039480	0,811757	0,039480	4,187086
			0,039573	0,662114	0,039573	4,111887
			0,039667	0,511706	0,039667	4,033135
			0,039760	0,360682	0,039760	3,950901
			0,039853	0,209190	0,039853	3,865261
			0,039947	0,057379	0,039947	3,776293
			0,040040	-0,094603	0,040040	3,684078
			0,040133	-0,246606	0,040133	3,588698
			0,040227	-0,398481	0,040227	3,490240
			0,040320	-0,550079	0,040320	3,388792
			0,040413	-0,701249	0,040413	3,284444
			0,040507	-0,851845	0,040507	3,177290
			0,040600	-1,001718	0,040600	3,067423
			0,040693	-1,150721	0,040693	2,954941
			0,040787	-1,298707	0,040787	2,839944
			0,040880	-1,445530	0,040880	2,722532
			0,040973	-1,591046	0,040973	2,602808
			0,041067	-1,735112	0,041067	2,480878
			0,041160	-1,877586	0,041160	2,356846
			0,041253	-2,018328	0,041253	2,230821
			0,041347	-2,157199	0,041347	2,102913
			0,041440	-2,294063	0,041440	1,973232
			0,041533	-2,428784	0,041533	1,841890
			0,041627	-2,561230	0,041627	1,709000
			0,041720	-2,691271	0,041720	1,574677
			0,041813	-2,818778	0,041813	1,439037
			0,041907	-2,943626	0,041907	1,302194
			0,042000	-3,065691	0,042000	1,164267
			0,042093	-3,184853	0,042093	1,025374
			0,042187	-3,300995	0,042187	0,885632
			0,042280	-3,414002	0,042280	0,745160
			0,042373	-3,523762	0,042373	0,604079
			0,042467	-3,630168	0,042467	0,462507
			0,042560	-3,733113	0,042560	0,320565
			0,042653	-3,832497	0,042653	0,178372
			0,042747	-3,928221	0,042747	0,036049
			0,042840	-4,020191	0,042840	-0,106284
			0,042933	-4,108315	0,042933	-0,248508
			0,043027	-4,192507	0,043027	-0,390502
			0,043120	-4,272683	0,043120	-0,532149
			0,043213	-4,348764	0,043213	-0,673328
			0,043307	-4,420675	0,043307	-0,813921
			0,043400	-4,488344	0,043400	-0,953812
			0,043493	-4,551705	0,043493	-1,092882
			0,043587	-4,610694	0,043587	-1,231017
			0,043680	-4,665253	0,043680	-1,368101
			0,043773	-4,715328	0,043773	-1,504019
			0,043867	-4,760870	0,043867	-1,638660
			0,043960	-4,801832	0,043960	-1,771911
			0,044053	-4,838174	0,044053	-1,903661
			0,044147	-4,869861	0,044147	-2,033802
			0,044240	-4,896859	0,044240	-2,162226
			0,044333	-4,919143	0,044333	-2,288826
			0,044427	-4,936690	0,044427	-2,413499
			0,044520	-4,949482	0,044520	-2,536140
			0,044613	-4,957506	0,044613	-2,656651
			0,044707	-4,960754	0,044707	-2,774930
			0,044800	-4,959222	0,044800	-2,890882
			0,044893	-4,952911	0,044893	-3,004410
			0,044987	-4,941828	0,044987	-3,115422
			0,045080	-4,925982	0,045080	-3,223826
			0,045173	-4,905389	0,045173	-3,329535
			0,045267	-4,880069	0,045267	-3,432462
			0,045360	-4,850047	0,045360	-3,532522
			0,045453	-4,815351	0,045453	-3,629634
			0,045547	-4,776016	0,045547	-3,723720
			0,045640	-4,732079	0,045640	-3,814702
			0,045733	-4,683585	0,045733	-3,902506
			0,045827	-4,630579	0,045827	-3,987062
			0,045920	-4,573115	0,045920	-4,068301
			0,046013	-4,511249	0,046013	-4,146158
			0,046107	-4,445040	0,046107	-4,220568
			0,046200	-4,374555	0,046200	-4,291473
			0,046293	-4,299862	0,046293	-4,358815
			0,046387	-4,221035	0,046387	-4,422541
			0,046480	-4,138152	0,046480	-4,482598
			0,046573	-4,051293	0,046573	-4,538940
			0,046667	-3,960543	0,046667	-4,591520
			0,046760	-3,865994	0,046760	-4,640298
			0,046853	-3,767736	0,046853	-4,685235
			0,046947	-3,665867	0,046947	-4,726294
			0,047040	-3,560488	0,047040	-4,763445
			0,047133	-3,451701	0,047133	-4,796656
			0,047227	-3,339615	0,047227	-4,825904
			0,047320	-3,224338	0,047320	-4,851165
			0,047413	-3,105985	0,047413	-4,872421
			0,047507	-2,984673	0,047507	-4,889654
			0,047600	-2,860520	0,047600	-4,902852
			0,047693	-2,733650	0,047693	-4,912006
			0,047787	-2,604186	0,047787	-4,917111
			0,047880	-2,472257	0,047880	-4,918162
			0,047973	-2,337992	0,047973	-4,915162
			0,048067	-2,201525	0,048067	-4,908113
			0,048160	-2,062988	0,048160	-4,897023
			0,048253	-1,922519	0,048253	-4,881902
			0,048347	-1,780257	0,048347	-4,862765
			0,048440	-1,636341	0,048440	-4,839629
			0,048533	-1,490914	0,048533	-4,812513
			0,048627	-1,344118	0,048627	-4,781442
			0,048720	-1,196098	0,048720	-4,746443
			0,048813	-1,047001	0,048813	-4,707545
			0,048907	-0,896973	0,048907	-4,664782
			0,049000	-0,746162	0,049000	-4,618191
			0,049093	-0,594717	0,049093	-4,567811
			0,049187	-0,442787	0,049187	-4,513685
			0,049280	-0,290521	0,049280	-4,455858
			0,049373	-0,138071	0,049373	-4,394380
			0,049467	0,014413	0,049467	-4,329301
			0,049560	0,166782	0,049560	-4,260678
			0,049653	0,318886	0,049653	-4,188567
			0,049747	0,470573	0,049747	-4,113030
			0,049840	0,621695	0,049840	-4,034128
			0,049933	0,772102	0,049933	-3,951929
			0,050027	0,921647	0,050027	-3,866501
			0,050120	1,070182	0,050120	-3,777916
			0,050213	1,217560	0,050213	-3,686247
			0,050307	1,363637	0,050307	-3,591572
			0,050400	1,508267	0,050400	-3,493968
			0,050493	1,651310	0,050493	-3,393518
			0,050587	1,792623	0,050587	-3,290306
			0,050680	1,932067	0,050680	-3,184416
			0,050773	2,069505	0,050773	-3,075939
			0,050867	2,204802	0,050867	-2,964963
			0,050960	2,337824	0,050960	-2,851581
			0,051053	2,468440	0,051053	-2,735889
			0,051147	2,596521	0,051147	-2,617981
			0,051240	2,721942	0,051240	-2,497957
			0,051333	2,844578	0,051333	-2,375916
			0,051427	2,964310	0,051427	-2,251960
			0,051520	3,081018	0,051520	-2,126192
			0,051613	3,194588	0,051613	-1,998717
			0,051707	3,304909	0,051707	-1,869641
			0,051800	3,411871	0,051800	-1,739072
			0,051893	3,515369	0,051893	-1,607118
			0,051987	3,615302	0,051987	-1,473890
			0,052080	3,711571	0,052080	-1,339497
			0,052173	3,804082	0,052173	-1,204054
			0,052267	3,892743	0,052267	-1,067671
			0,052360	3,977467	0,052360	-0,930464
			0,052453	4,058171	0,052453	-0,792547
			0,052547	4,134776	0,052547	-0,654034
			0,052640	4,207206	0,052640	-0,515042
			0,052733	4,275391	0,052733	-0,375687
			0,052827	4,339262	0,052827	-0,236084
			0,052920	4,398759	0,052920	-0,096352
			0,053013	4,453821	0,053013	0,043394
			0,053107	4,504396	0,053107	0,183036
			0,053200	4,550434	0,053200	0,322458
			0,053293	4,591889	0,053293	0,461542
			0,053387	4,628721	0,053387	0,600172
			0,053480	4,660895	0,053480	0,738231
			0,053573	4,688378	0,053573	0,875604
			0,053667	4,711145	0,053667	1,012176
			0,053760	4,729172	0,053760	1,147831
			0,053853	4,742443	0,053853	1,282455
			0,053947	4,750945	0,053947	1,415936
			0,054040	4,754669	0,054040	1,548159
			0,054133	4,753613	0,054133	1,679015
			0,054227	4,747779	0,054227	1,808393
			0,054320	4,737171	0,054320	1,936182
			0,054413	4,721801	0,054413	2,062276
			0,054507	4,701684	0,054507	2,186568
			0,054600	4,676841	0,054600	2,308951
			0,054693	4,647297	0,054693	2,429323
			0,054787	4,613081	0,054787	2,547582
			0,054880	4,574227	0,054880	2,663625
			0,054973	4,530773	0,054973	2,777356
			0,055067	4,482764	0,055067	2,888677
			0,055160	4,430246	0,055160	2,997492
			0,055253	4,373272	0,055253	3,103710
			0,055347	4,311898	0,055347	3,207238
			0,055440	4,246186	0,055440	3,307989
			0,055533	4,176199	0,055533	3,405876
			0,055627	4,102008	0,055627	3,500814
			0,055720	4,023686	0,055720	3,592723
			0,055813	3,941311	0,055813	3,681522
			0,055907	3,854963	0,055907	3,767134
			0,056000	3,764728	0,056000	3,849487
			0,056093	3,670696	0,056093	3,928507
			0,056187	3,572960	0,056187	4,004126
			0,056280	3,471615	0,056280	4,076279
			0,056373	3,366762	0,056373	4,144902
			0,056467	3,258505	0,056467	4,209934
			0,056560	3,146950	0,056560	4,271319
			0,056653	3,032207	0,056653	4,329002
			0,056747	2,914390	0,056747	4,382932
			0,056840	2,793615	0,056840	4,433061
			0,056933	2,670001	0,056933	4,479343
			0,057027	2,543670	0,057027	4,521737
			0,057120	2,414746	0,057120	4,560204
			0,057213	2,283357	0,057213	4,594709
			0,057307	2,149632	0,057307	4,625221
			0,057400	2,013702	0,057400	4,651709
			0,057493	1,875702	0,057493	4,674150
			0,057587	1,735767	0,057587	4,692521
			0,057680	1,594036	0,057680	4,706804
			0,057773	1,450647	0,057773	4,716984
			0,057867	1,305743	0,057867	4,723048
			0,057960	1,159465	0,057960	4,724990
			0,058053	1,011957	0,058053	4,722805
			0,058147	0,863365	0,058147	4,716491
			0,058240	0,713835	0,058240	4,706050
			0,058333	0,563514	0,058333	4,691490
			0,058427	0,412550	0,058427	4,672820
			0,058520	0,261090	0,058520	4,650051
			0,058613	0,109284	0,058613	4,623202
			0,058707	-0,042718	0,058707	4,592291
			0,058800	-0,194768	0,058800	4,557343
			0,058893	-0,346716	0,058893	4,518385
			0,058987	-0,498413	0,058987	4,475446
			0,059080	-0,649710	0,059080	4,428561
			0,059173	-0,800459	0,059173	4,377768
			0,059267	-0,950511	0,059267	4,323106
			0,059360	-1,099719	0,059360	4,264621
			0,059453	-1,247936	0,059453	4,202359
			0,059547	-1,395018	0,059547	4,136372
			0,059640	-1,540820	0,059640	4,066713
			0,059733	-1,685198	0,059733	3,993441
			0,059827	-1,828013	0,059827	3,916614
			0,059920	-1,969122	0,059920	3,836298
			0,060013	-2,108389	0,060013	3,752559
			0,060107	-2,245676	0,060107	3,665466
			0,060200	-2,380849	0,060200	3,575093
			0,060293	-2,513776	0,060293	3,481515
			0,060387	-2,644326	0,060387	3,384811
			0,060480	-2,772372	0,060480	3,285063
			0,060573	-2,897788	0,060573	3,182355
			0,060667	-3,020452	0,060667	3,076773
			0,060760	-3,140243	0,060760	2,968408
			0,060853	-3,257044	0,060853	2,857351
			0,060947	-3,370741	0,060947	2,743698
			0,061040	-3,481223	0,061040	2,627544
			0,061133	-3,588382	0,061133	2,508990
			0,061227	-3,692113	0,061227	2,388138
			0,061320	-3,792315	0,061320	2,265090
			0,061413	-3,888890	0,061413	2,139953
			0,061507	-3,981743	0,061507	2,012834
			0,061600	-4,070784	0,061600	1,883844
			0,061693	-4,155927	0,061693	1,753094
			0,061787	-4,237087	0,061787	1,620697
			0,061880	-4,314186	0,061880	1,486768
			0,061973	-4,387149	0,061973	1,351423
			0,062067	-4,455904	0,062067	1,214780
			0,062160	-4,520386	0,062160	1,076959
			0,062253	-4,580530	0,062253	0,938079
			0,062347	-4,636278	0,062347	0,798262
			0,062440	-4,687577	0,062440	0,657631
			0,062533	-4,734377	0,062533	0,516309
			0,062627	-4,776632	0,062627	0,374420
			0,062720	-4,814300	0,062720	0,232089
			0,062813	-4,847347	0,062813	0,089441
			0,062907	-4,875739	0,062907	-0,053397
			0,063000	-4,899450	0,063000	-0,196301
			0,063093	-4,918457	0,063093	-0,339142
			0,063187	-4,932742	0,063187	-0,481795
			0,063280	-4,942290	0,063280	-0,624133
			0,063373	-4,947094	0,063373	-0,766030
			0,063467	-4,947149	0,063467	-0,907359
			0,063560	-4,942455	0,063560	-1,047994
			0,063653	-4,933017	0,063653	-1,187810
			0,063747	-4,918846	0,063747	-1,326683
			0,063840	-4,899955	0,063840	-1,464487
			0,063933	-4,876364	0,063933	-1,601100
			0,064027	-4,848095	0,064027	-1,736398
			0,064120	-4,815178	0,064120	-1,870262
			0,064213	-4,777644	0,064213	-2,002570
			0,064307	-4,735532	0,064307	-2,133203
			0,064400	-4,688881	0,064400	-2,262044
			0,064493	-4,637740	0,064493	-2,388976
			0,064587	-4,582157	0,064587	-2,513886
			0,064680	-4,522189	0,064680	-2,636660
			0,064773	-4,457893	0,064773	-2,757187
			0,064867	-4,389333	0,064867	-2,875358
			0,064960	-4,316578	0,064960	-2,991067
			0,065053	-4,239697	0,065053	-3,104208
			0,065147	-4,158767	0,065147	-3,214680
			0,065240	-4,073868	0,065240	-3,322381
			0,065333	-3,985082	0,065333	-3,427213
			0,065427	-3,892497	0,065427	-3,529083
			0,065520	-3,796204	0,065520	-3,627897
			0,065613	-3,696298	0,065613	-3,723566
			0,065707	-3,592875	0,065707	-3,816002
			0,065800	-3,486039	0,065800	-3,905122
			0,065893	-3,375893	0,065893	-3,990844
			0,065987	-3,262546	0,065987	-4,073092
			0,066080	-3,146108	0,066080	-4,151790
			0,066173	-3,026694	0,066173	-4,226868
			0,066267	-2,904421	0,066267	-4,298257
			0,066360	-2,779409	0,066360	-4,365892
			0,066453	-2,651780	0,066453	-4,429714
			0,066547	-2,521659	0,066547	-4,489663
			0,066640	-2,389174	0,066640	-4,545688
			0,066733	-2,254454	0,066733	-4,597738
			0,066827	-2,117631	0,066827	-4,645766
			0,066920	-1,978839	0,066920	-4,689731
			0,067013	-1,838215	0,067013	-4,729593
			0,067107	-1,695895	0,067107	-4,765318
			0,067200	-1,552020	0,067200	-4,796877
			0,067293	-1,406729	0,067293	-4,824241
			0,067387	-1,260166	0,067387	-4,847389
			0,067480	-1,112472	0,067480	-4,866303
			0,067573	-0,963794	0,067573	-4,880968
			0,067667	-0,814277	0,067667	-4,891374
			0,067760	-0,664066	0,067760	-4,897515
			0,067853	-0,513309	0,067853	-4,899390
			0,067947	-0,362153	0,067947	-4,897001
			0,068040	-0,210747	0,068040	-4,890354
			0,068133	-0,059237	0,068133	-4,879462
			0,068227	0,092227	0,068227	-4,864338
			0,068320	0,243497	0,068320	-4,845003
			0,068413	0,394426	0,068413	-4,821479
			0,068507	0,544866	0,068507	-4,793796
			0,068600	0,694670	0,068600	-4,761984
			0,068693	0,843690	0,068693	-4,726080
			0,068787	0,991782	0,068787	-4,686124
			0,068880	1,138801	0,068880	-4,642161
			0,068973	1,284603	0,068973	-4,594239
			0,069067	1,429044	0,069067	-4,542410
			0,069160	1,571985	0,069160	-4,486731
			0,069253	1,713284	0,069253	-4,427262
			0,069347	1,852805	0,069347	-4,364067
			0,069440	1,990410	0,069440	-4,297215
			0,069533	2,125964	0,069533	-4,226777
			0,069627	2,259336	0,069627	-4,152828
			0,069720	2,390395	0,069720	-4,075447
			0,069813	2,519012	0,069813	-3,994717
			0,069907	2,645061	0,069907	-3,910724
			0,070000	2,768420	0,070000	-3,823556
			0,070093	2,888968	0,070093	-3,733307
			0,070187	3,006586	0,070187	-3,640072
			0,070280	3,121159	0,070280	-3,543950
			0,070373	3,232576	0,070373	-3,445041
			0,070467	3,340728	0,070467	-3,343451
			0,070560	3,445507	0,070560	-3,239287
			0,070653	3,546813	0,070653	-3,132658
			0,070747	3,644545	0,070747	-3,023676
			0,070840	3,738608	0,070840	-2,912456
			0,070933	3,828909	0,070933	-2,799114
			0,071027	3,915361	0,071027	-2,683769
			0,071120	3,997878	0,071120	-2,566542
			0,071213	4,076380	0,071213	-2,447555
			0,071307	4,150790	0,071307	-2,326931
			0,071400	4,221034	0,071400	-2,204797
			0,071493	4,287044	0,071493	-2,081279
			0,071587	4,348755	0,071587	-1,956505
			0,071680	4,406106	0,071680	-1,830604
			0,071773	4,459042	0,071773	-1,703705
			0,071867	4,507509	0,071867	-1,575940
			0,071960	4,551460	0,071960	-1,447438
			0,072053	4,590853	0,072053	-1,318331
			0,072147	4,625648	0,072147	-1,188751
			0,072240	4,655811	0,072240	-1,058828
			0,072333	4,681311	0,072333	-0,928694
			0,072427	4,702125	0,072427	-0,798480
			0,072520	4,718231	0,072520	-0,668316
			0,072613	4,729613	0,072613	-0,538331
			0,072707	4,736260	0,072707	-0,408654
			0,072800	4,738164	0,072800	-0,279412
			0,072893	4,735324	0,072893	-0,150732
			0,072987	4,727742	0,072987	-0,022737
			0,073080	4,715426	0,073080	0,104448
			0,073173	4,698386	0,073173	0,230703
			0,073267	4,676639	0,073267	0,355909
			0,073360	4,650207	0,073360	0,479949
			0,073453	4,619114	0,073453	0,602708
			0,073547	4,583390	0,073547	0,724074
			0,073640	4,543071	0,073640	0,843938
			0,073733	4,498195	0,073733	0,962194
			0,073827	4,448807	0,073827	1,078738
			0,073920	4,394953	0,073920	1,193471
			0,074013	4,336686	0,074013	1,306296
			0,074107	4,274064	0,074107	1,417121
			0,074200	4,207147	0,074200	1,525855
			0,074293	4,135999	0,074293	1,632414
			0,074387	4,060691	0,074387	1,736717
			0,074480	3,981296	0,074480	1,838687
			0,074573	3,897891	0,074573	1,938251
			0,074667	3,810558	0,074667	2,035341
			0,074760	3,719382	0,074760	2,129895
			0,074853	3,624451	0,074853	2,221852
			0,074947	3,525859	0,074947	2,311161
			0,075040	3,423702	0,075040	2,397771
			0,075133	3,318079	0,075133	2,481640
			0,075227	3,209094	0,075227	2,562729
			0,075320	3,096853	0,075320	2,641005
			0,075413	2,981467	0,075413	2,716441
			0,075507	2,863047	0,075507	2,789015
			0,075600	2,741709	0,075600	2,858709
			0,075693	2,617574	0,075693	2,925514
			0,075787	2,490760	0,075787	2,989424
			0,075880	2,361394	0,075880	3,050440
			0,075973	2,229602	0,075973	3,108568
			0,076067	2,095512	0,076067	3,163819
			0,076160	1,959255	0,076160	3,216213
			0,076253	1,820967	0,076253	3,265773
			0,076347	1,680781	0,076347	3,312528
			0,076440	1,538835	0,076440	3,356513
			0,076533	1,395268	0,076533	3,397770
			0,076627	1,250222	0,076627	3,436345
			0,076720	1,103838	0,076720	3,472290
			0,076813	0,956260	0,076813	3,505665
			0,076907	0,807633	0,076907	3,536531
			0,077000	0,658102	0,077000	3,564957
			0,077093	0,507814	0,077093	3,591019
			0,077187	0,356917	0,077187	3,614794
			0,077280	0,205559	0,077280	3,636368
			0,077373	0,053888	0,077373	3,655828
			0,077467	-0,097946	0,077467	3,673270
			0,077560	-0,249794	0,077560	3,688791
			0,077653	-0,401508	0,077653	3,702494
			0,077747	-0,552937	0,077747	3,714486
			0,077840	-0,703934	0,077840	3,724876
			0,077933	-0,854349	0,077933	3,733780
			0,078027	-1,004035	0,078027	3,741315
			0,078120	-1,152845	0,078120	3,747601
			0,078213	-1,300631	0,078213	3,752762
			0,078307	-1,447250	0,078307	3,756923
			0,078400	-1,592555	0,078400	3,760213
			0,078493	-1,736405	0,078493	3,762761
			0,078587	-1,878658	0,078587	3,764699
			0,078680	-2,019173	0,078680	3,766158
			0,078773	-2,157811	0,078773	3,767273
			0,078867	-2,294438	0,078867	3,768175
			0,078960	-2,428917	0,078960	3,768998
			0,079053	-2,561116	0,079053	3,769874
			0,079147	-2,690905	0,079147	3,770935
			0,079240	-2,818155	0,079240	3,772310
			0,079333	-2,942742	0,079333	3,774128
			0,079427	-3,064542	0,079427	3,776512
			0,079520	-3,183435	0,079520	3,779586
			0,079613	-3,299303	0,079613	3,783467
			0,079707	-3,412033	0,079707	3,788271
			0,079800	-3,521512	0,079800	3,794105
			0,079893	-3,627633	0,079893	3,801076
			0,079987	-3,730291	0,079987	3,809280
			0,080080	-3,829383	0,080080	3,818809
			0,080173	-3,924813	0,080173	3,829749
			0,080267	-4,016486	0,080267	3,842175
			0,080360	-4,104310	0,080360	3,856156
			0,080453	-4,188200	0,080453	3,871751
			0,080547	-4,268071	0,080547	3,889010
			0,080640	-4,343846	0,080640	3,907971
			0,080733	-4,415448	0,080733	3,928661
			0,080827	-4,482807	0,080827	3,951098
			0,080920	-4,545856	0,080920	3,975284
			0,081013	-4,604532	0,081013	4,001209
			0,081107	-4,658777	0,081107	4,028849
			0,081200	-4,708538	0,081200	4,058166
			0,081293	-4,753765	0,081293	4,089106
			0,081387	-4,794412	0,081387	4,121598
			0,081480	-4,830440	0,081480	4,155556
			0,081573	-4,861812	0,081573	4,190875
			0,081667	-4,888498	0,081667	4,227432
			0,081760	-4,910470	0,081760	4,265085
			0,081853	-4,927707	0,081853	4,303673
			0,081947	-4,940192	0,081947	4,343014
			0,082040	-4,947911	0,082040	4,382905
			0,082133	-4,950857	0,082133	4,423121
			0,082227	-4,949027	0,082227	4,463415
			0,082320	-4,942422	0,082320	4,503517
			0,082413	-4,931049	0,082413	4,543132
			0,082507	-4,914919	0,082507	4,581944
			0,082600	-4,894048	0,082600	4,619608
			0,082693	-4,868456	0,082693	4,655756
			0,082787	-4,838168	0,082787	4,689994
			0,082880	-4,803215	0,082880	4,721901
			0,082973	-4,763631	0,082973	4,751030
			0,083067	-4,719454	0,083067	4,776904
			0,083160	-4,670730	0,083160	4,799023
			0,083253	-4,617505	0,083253	4,816854
			0,083347	-4,559833	0,083347	4,829839
			0,083440	-4,497771	0,083440	4,837389
			0,083533	-4,431381	0,083533	4,838889
			0,083627	-4,360728	0,083627	4,833693
			0,083720	-4,285882	0,083720	4,821127
			0,083813	-4,206918	0,083813	4,800486
			0,083907	-4,123915	0,083907	4,771040
			0,084000	-4,036954	0,084000	4,732027
			0,084093	-3,946122	0,084093	4,682656
			0,084187	-3,851511	0,084187	4,622111
			0,084280	-3,753212	0,084280	4,549545
			0,084373	-3,651326	0,084373	4,464086
			0,084467	-3,545952	0,084467	4,364833
			0,084560	-3,437196	0,084560	4,250859
			0,084653	-3,325166	0,084653	4,121215
			0,084747	-3,209974	0,084747	3,974923
			0,084840	-3,091735	0,084840	3,810984
			0,084933	-2,970566	0,084933	3,628376
			0,085027	-2,846588	0,085027	3,426058
			0,085120	-2,719925	0,085120	3,202966
			0,085213	-2,590704	0,085213	2,958021
			0,085307	-2,459053	0,085307	2,690127
			0,085400	-2,325104	0,085400	2,398172
			0,085493	-2,188990	0,085493	2,081034
			0,085587	-2,050847	0,085587	1,737579
			0,085680	-1,910813	0,085680	1,366668
			0,085773	-1,769029	0,085773	0,967154
			0,085867	-1,625636	0,085867	0,537889
			0,085960	-1,480778	0,085960	0,077726
			0,086053	-1,334598	0,086053	-0,414479
			0,086147	-1,187244	0,086147	-0,939860
			0,086240	-1,038862	0,086240	-1,499543
			0,086333	-0,889602	0,086333	-2,094636
			0,086427	-0,739613	0,086427	-2,726231
			0,086520	-0,589044	0,086520	-3,395394
			0,086613	-0,438047	0,086613	-4,103162
			0,086707	-0,286773	0,086707	-4,850540
			0,086800	-0,135373	0,086800	-5,638494
			0,086893	0,016001	0,086893	-6,467945
			0,086987	0,167196	0,086987	-7,339764
			0,087080	0,318063	0,087080	-8,254764
			0,087173	0,468448	0,087173	-9,213697
			0,087267	0,618202	0,087267	-10,217243
			0,087360	0,767174	0,087360	-11,266006
			0,087453	0,915214	0,087453	-12,360502
			0,087547	1,062175	0,087547	-13,501156
			0,087640	1,207908	0,087640	-14,688290
			0,087733	1,352267	0,087733	-15,922114
			0,087827	1,495107	0,087827	-17,202720
			0,087920	1,636285	0,087920	-18,530068
			0,088013	1,775658	0,088013	-19,903976
			0,088107	1,913087	0,088107	-21,324114
			0,088200	2,048433	0,088200	-22,789987
			0,088293	2,181560	0,088293	-24,300925
			0,088387	2,312334	0,088387	-25,856072
			0,088480	2,440624	0,088480	-27,454372
			0,088573	2,566301	0,088573	-29,094555
			0,088667	2,689237	0,088667	-30,775123
			0,088760	2,809309	0,088760	-32,494338
			0,088853	2,926397	0,088853	-34,250200
			0,088947	3,040381	0,088947	-36,040440
			0,089040	3,151148	0,089040	-37,862496
			0,089133	3,258585	0,089133	-39,713499
			0,089227	3,362584	0,089227	-41,590253
			0,089320	3,463040	0,089320	-43,489219
			0,089413	3,559851	0,089413	-45,406493
			0,089507	3,652921	0,089507	-47,337788
			0,089600	3,742154	0,089600	-49,278408
			0,089693	3,827461	0,089693	-51,223231
			0,089787	3,908756	0,089787	-53,166687
			0,089880	3,985955	0,089880	-55,102728
			0,089973	4,058982	0,089973	-57,024810
			0,090067	4,127761	0,090067	-58,925861
			0,090160	4,192224	0,090160	-60,798263
			0,090253	4,252305	0,090253	-62,633815
			0,090347	4,307942	0,090347	-64,423712
			0,090440	4,359080	0,090440	-66,158512
			0,090533	4,405666	0,090533	-67,828105
			0,090627	4,447653	0,090627	-69,421683
			0,090720	4,484999	0,090720	-70,927708
			0,090813	4,517664	0,090813	-72,333873
			0,090907	4,545615	0,090907	-73,627073
			0,091000	4,568825	0,091000	-74,793364
			0,091093	4,587268	0,091093	-75,817929
			0,091187	4,600926	0,091187	-76,685035
			0,091280	4,609784	0,091280	-77,377997
			0,091373	4,613833	0,091373	-77,879133
			0,091467	4,613068	0,091467	-78,169722
			0,091560	4,607490	0,091560	-78,229959
			0,091653	4,597103	0,091653	-78,038911
			0,091747	4,581917	0,091747	-77,574466
			0,091840	4,561947	0,091840	-76,813290
			0,091933	4,537213	0,091933	-75,730767
			0,092027	4,507738	0,092027	-74,300955
			0,092120	4,473553	0,092120	-72,496530
			0,092213	4,434690	0,092213	-70,288728
			0,092307	4,391189	0,092307	-67,647287
			0,092400	4,343092	0,092400	-64,540394
			0,092493	4,290448	0,092493	-60,934615
			0,092587	4,233309	0,092587	-56,794839
			0,092680	4,171732	0,092680	-52,084210
			0,092773	4,105779	0,092773	-46,764061
			0,092867	4,035515	0,092867	-40,793843
			0,092960	3,961011	0,092960	-34,131056
			0,093053	3,882341	0,093053	-26,731176
			0,093147	3,799585	0,093147	-18,547576
			0,093240	3,712825	0,093240	-9,531454

