LabVIEW Measurement	
Writer_Version	2
Reader_Version	2
Separator	Tab
Decimal_Separator	,
Multi_Headings	Yes
X_Columns	No
Time_Pref	Relative
Operator	Laboratoire
Date	2019/02/15
Time	15:00:14,4494684833530864323
***End_of_Header***	
	
Channels	6						
Samples	100	100	1000	1000	1000	1000	
Date	2019/02/15	2019/02/15	2019/02/15	2019/02/15	2019/02/15	2019/02/15	
Time	15:00:14,6384735107421875	15:00:14,4494684833530864323	15:00:14,6384735107421875	15:00:14,6384735107421875	15:00:14,6384735107421875	15:00:14,6384735107421875	
Y_Unit_Label		Volts					
X_Dimension	Time	Time	Time	Time	Time	Time	
X0	0,0000000000000000E+0	0,0000000000000000E+0	0,0000000000000000E+0	0,0000000000000000E+0	0,0000000000000000E+0	0,0000000000000000E+0	
Delta_X	1,000000	0,001000	1,000000	1,000000	1,000000	1,000000	
***End_of_Header***							
X_Value	Untitled	Tension	Untitled 1	Untitled 2	Untitled 3	Untitled 4	Comment
	0,000000	1,279750	0,000000	1,279750	0,000000	1,279750
	0,001000	-1,699168	9,900000E-5	1,000872	9,900000E-5	-1,392812E+24
	0,002000	-4,077211	0,000198	0,713385	0,000198	-1,627023E+24
	0,003000	-5,009078	0,000297	0,418584	0,000297	-1,393790E+24
	0,004000	-3,944815	0,000396	0,118033	0,000396	-1,032339E+24
	0,005000	-1,470021	0,000495	-0,186478	0,000495	-6,918158E+23
	0,006000	1,519082	0,000594	-0,493005	0,000594	-4,241199E+23
	0,007000	3,902217	0,000693	-0,799523	0,000693	-2,354125E+23
	0,008000	4,722056	0,000792	-1,104004	0,000792	-1,134417E+23
	0,009000	3,723991	0,000891	-1,404491	0,000891	-4,111532E+22
	0,010000	1,244105	0,000990	-1,699168	0,000990	-2,541263E+21
	0,011000	-1,739906	0,001089	-1,986410	0,001089	1,484807E+22
	0,012000	-4,102672	0,001188	-2,264817	0,001188	2,004660E+22
	0,013000	-5,003986	0,001287	-2,533234	0,001287	1,900070E+22
	0,014000	-3,919354	0,001386	-2,790744	0,001386	1,535136E+22
	0,015000	-1,434376	0,001485	-3,036649	0,001485	1,113630E+22
	0,016000	1,554727	0,001584	-3,270428	0,001584	7,356619E+21
	0,017000	3,917494	0,001683	-3,491690	0,001683	4,392117E+21
	0,018000	4,716964	0,001782	-3,700116	0,001782	2,283855E+21
	0,019000	3,698530	0,001881	-3,895404	0,001881	9,135839E+20
	0,020000	1,208460	0,001980	-4,077211	0,001980	1,092885E+20
	0,021000	-1,770459	0,002079	-4,245116	0,002079	-2,986722E+20
	0,022000	-4,123041	0,002178	-4,398582	0,002178	-4,523371E+20
	0,023000	-4,998894	0,002277	-4,536948	0,002277	-4,588060E+20
	0,024000	-3,893893	0,002376	-4,659428	0,002376	-3,922013E+20
	0,025000	-1,398731	0,002475	-4,765132	0,002475	-2,996162E+20
	0,026000	1,590372	0,002574	-4,853105	0,002574	-2,080186E+20
	0,027000	3,937862	0,002673	-4,922371	0,002673	-1,305660E+20
	0,028000	4,711872	0,002772	-4,971990	0,002772	-7,170193E+19
	0,029000	3,678162	0,002871	-5,001122	0,002871	-3,091705E+19
	0,030000	1,172815	0,002970	-5,009078	0,002970	-5,315124E+18
	0,031000	-1,806104	0,003069	-4,995377	0,003069	8,774367E+18
	0,032000	-4,143409	0,003168	-4,959783	0,003168	1,488328E+19
	0,033000	-4,993802	0,003267	-4,902329	0,003267	1,596779E+19
	0,034000	-3,873524	0,003366	-4,823333	0,003366	1,427006E+19
	0,035000	-1,368178	0,003465	-4,723381	0,003465	1,134886E+19
	0,036000	1,626018	0,003564	-4,603310	0,003564	8,191072E+18
	0,037000	3,958231	0,003663	-4,464165	0,003663	5,348652E+18
	0,038000	4,711872	0,003762	-4,307153	0,003762	3,069672E+18
	0,039000	3,652701	0,003861	-4,133584	0,003861	1,408239E+18
	0,040000	1,137169	0,003960	-3,944815	0,003960	3,085165E+17
	0,041000	-1,841749	0,004059	-3,742193	0,004059	-3,361482E+17
	0,042000	-4,163778	0,004158	-3,527005	0,004158	-6,450987E+17
	0,043000	-4,988709	0,004257	-3,300442	0,004257	-7,284023E+17
	0,044000	-3,848064	0,004356	-3,063569	0,004356	-6,763594E+17
	0,045000	-1,332532	0,004455	-2,817317	0,004455	-5,565034E+17
	0,046000	1,656571	0,004554	-2,562487	0,004554	-4,149980E+17
	0,047000	3,978600	0,004653	-2,299762	0,004653	-2,802121E+17
	0,048000	4,701687	0,004752	-2,029744	0,004752	-1,669998E+17
	0,049000	3,632332	0,004851	-1,752982	0,004851	-8,080756E+16
	0,050000	1,101524	0,004950	-1,470021	0,004950	-2,115353E+16
	0,051000	-1,877394	0,005049	-1,181440	0,005049	1,568423E+16
	0,052000	-4,189239	0,005148	-0,887896	0,005148	3,475996E+16
	0,053000	-4,983617	0,005247	-0,590152	0,005247	4,122667E+16
	0,054000	-3,822603	0,005346	-0,289104	0,005346	3,963362E+16
	0,055000	-1,296887	0,005445	0,014208	0,005445	3,360835E+16
	0,056000	1,697308	0,005544	0,318598	0,005544	2,579398E+16
	0,057000	3,998968	0,005643	0,622746	0,005643	1,793763E+16
	0,058000	4,701687	0,005742	0,925224	0,005742	1,105318E+16
	0,059000	3,606871	0,005841	1,224520	0,005841	5,605666E+15
	0,060000	1,065879	0,005940	1,519082	0,005940	1,685286E+15
	0,061000	-1,913040	0,006039	1,807353	0,006039	-8,461290E+14
	0,062000	-4,209608	0,006138	2,087811	0,006138	-2,242368E+15
	0,063000	-4,983617	0,006237	2,359010	0,006237	-2,793316E+15
	0,064000	-3,797142	0,006336	2,619606	0,006336	-2,774308E+15
	0,065000	-1,256150	0,006435	2,868379	0,006435	-2,418366E+15
	0,066000	1,732953	0,006534	3,104253	0,006534	-1,905093E+15
	0,067000	4,019337	0,006633	3,326298	0,006633	-1,360633E+15
	0,068000	4,691503	0,006732	3,533725	0,006732	-8,641081E+14
	0,069000	3,581410	0,006831	3,725878	0,006831	-4,570800E+14
	0,070000	1,025142	0,006930	3,902217	0,006930	-1,536794E+14
	0,071000	-1,948685	0,007029	4,062297	0,007029	5,009112E+13
	0,072000	-4,224884	0,007128	4,205748	0,007128	1,686393E+14
	0,073000	-4,973433	0,007227	4,332253	0,007227	2,209255E+14
	0,074000	-3,776773	0,007326	4,441533	0,007326	2,264039E+14
	0,075000	-1,220505	0,007425	4,533329	0,007425	2,025196E+14
	0,076000	1,768598	0,007524	4,607400	0,007524	1,634315E+14
	0,077000	4,034613	0,007623	4,663512	0,007623	1,196250E+14
	0,078000	4,691503	0,007722	4,701451	0,007722	7,810555E+13
	0,079000	3,555950	0,007821	4,721020	0,007821	4,292342E+13
	0,080000	0,994589	0,007920	4,722056	0,007920	1,583796E+13
	0,081000	-1,979238	0,008019	4,704442	0,008019	-3,009226E+12
	0,082000	-4,245253	0,008118	4,668118	0,008118	-1,449321E+13
	0,083000	-4,968341	0,008217	4,613097	0,008217	-2,001789E+13
	0,084000	-3,751312	0,008316	4,539472	0,008316	-2,115347E+13
	0,085000	-1,184859	0,008415	4,447429	0,008415	-1,939273E+13
	0,086000	1,799151	0,008514	4,337246	0,008514	-1,600833E+13
	0,087000	4,054982	0,008613	4,209299	0,008613	-1,198898E+13
	0,088000	4,686411	0,008712	4,064055	0,008712	-8,031900E+12
	0,089000	3,535581	0,008811	3,902073	0,008811	-4,571172E+12
	0,090000	0,958944	0,008910	3,723991	0,008910	-1,825337E+12
	0,091000	-2,014883	0,009009	3,530525	0,009009	1,482862E+11
	0,092000	-4,265621	0,009108	3,322456	0,009108	1,401153E+12
	0,093000	-4,963249	0,009207	3,100626	0,009207	2,048077E+12
	0,094000	-3,725852	0,009306	2,865933	0,009306	2,231314E+12
	0,095000	-1,154306	0,009405	2,619326	0,009405	2,094652E+12
	0,096000	1,834797	0,009504	2,361802	0,009504	1,766727E+12
	0,097000	4,075351	0,009603	2,094405	0,009603	1,352041E+12
	0,098000	4,681319	0,009702	1,818226	0,009702	9,278963E+11
	0,099000	3,510120	0,009801	1,534400	0,009801	5,454340E+11
			0,009900	1,244105	0,009900	2,331974E+11
			0,009999	0,948558	0,009999	1,921692E+9
			0,010098	0,649009	0,010098	-1,504102E+11
			0,010197	0,346729	0,010197	-2,338914E+11
			0,010296	0,043002	0,010296	-2,627698E+11
			0,010395	-0,260888	0,010395	-2,524417E+11
			0,010494	-0,563676	0,010494	-2,173653E+11
			0,010593	-0,864128	0,010593	-1,697993E+11
			0,010692	-1,161058	0,010692	-1,192153E+11
			0,010791	-1,453337	0,010791	-7,221410E+10
			0,010890	-1,739906	0,010890	-3,278119E+10
			0,010989	-2,019777	0,010989	-2,737857E+9
			0,011088	-2,292036	0,011088	1,772787E+10
			0,011187	-2,555836	0,011187	2,953390E+10
			0,011286	-2,810390	0,011286	3,423563E+10
			0,011385	-3,054951	0,011385	3,364612E+10
			0,011484	-3,288800	0,011484	2,955566E+10
			0,011583	-3,511229	0,011583	2,354693E+10
			0,011682	-3,721518	0,011682	1,689350E+10
			0,011781	-3,918925	0,011781	1,052473E+10
			0,011880	-4,102672	0,011880	5,038659E+9
			0,011979	-4,271943	0,011979	7,458532E+8
			0,012078	-4,425883	0,012078	-2,270706E+9
			0,012177	-4,563609	0,012177	-4,091112E+9
			0,012276	-4,684229	0,012276	-4,897704E+9
			0,012375	-4,786860	0,012375	-4,923085E+9
			0,012474	-4,870662	0,012474	-4,409518E+9
			0,012573	-4,934865	0,012573	-3,580299E+9
			0,012672	-4,978809	0,012672	-2,622212E+9
			0,012771	-5,001969	0,012771	-1,677368E+9
			0,012870	-5,003986	0,012870	-8,422761E+8
			0,012969	-4,984689	0,012969	-1,719595E+8
			0,013068	-4,944111	0,013068	3,129102E+8
			0,013167	-4,882490	0,013167	6,175340E+8
			0,013266	-4,800266	0,013266	7,644626E+8
			0,013365	-4,698070	0,013365	7,859156E+8
			0,013464	-4,576697	0,013464	7,174704E+8
			0,013563	-4,437078	0,013563	5,933426E+8
			0,013662	-4,280246	0,013662	4,432504E+8
			0,013761	-4,107297	0,013761	2,906972E+8
			0,013860	-3,919354	0,013860	1,524131E+8
			0,013959	-3,717535	0,013959	3,866009E+7
			0,014058	-3,502921	0,014058	-4,589273E+7
			0,014157	-3,276537	0,014157	-1,009846E+8
			0,014256	-3,039337	0,014256	-1,294822E+8
			0,014355	-2,792202	0,014355	-1,361618E+8
			0,014454	-2,535943	0,014454	-1,266573E+8
			0,014553	-2,271316	0,014553	-1,066319E+8
			0,014652	-1,999039	0,014652	-8,119067E+7
			0,014751	-1,719819	0,014751	-5,452171E+7
			0,014850	-1,434376	0,014850	-2,973447E+7
			0,014949	-1,143471	0,014949	-8854544,155571
			0,015048	-0,847928	0,015048	7070859,662949
			0,015147	-0,548656	0,015147	1,779911E+7
			0,015246	-0,246655	0,015246	2,368733E+7
			0,015345	0,056970	0,015345	2,548581E+7
			0,015444	0,361018	0,015444	2,415087E+7
			0,015543	0,664200	0,015543	2,069014E+7
			0,015642	0,965155	0,015642	1,604647E+7
			0,015741	1,262474	0,015741	1,102101E+7
			0,015840	1,554727	0,015840	6232030,677849
			0,015939	1,840487	0,015939	2103516,647877
			0,016038	2,118362	0,016038	-1123739,982601
			0,016137	2,387018	0,016137	-3365844,136887
			0,016236	2,645201	0,016236	-4661182,621333
			0,016335	2,891758	0,016335	-5133183,392090
			0,016434	3,125641	0,016434	-4954841,725391
			0,016533	3,345919	0,016533	-4318018,117265
			0,016632	3,551776	0,016632	-3409208,672663
			0,016731	3,742503	0,016731	-2392418,843756
			0,016830	3,917494	0,016830	-1398862,606960
			0,016929	4,076228	0,016929	-522669,614307
			0,017028	4,218263	0,017028	178605,163194
			0,017127	4,343219	0,017127	680010,763179
			0,017226	4,450767	0,017226	983077,502216
			0,017325	4,540621	0,017325	1108712,945206
			0,017424	4,612533	0,017424	1090068,054215
			0,017523	4,666287	0,017523	966074,649765
			0,017622	4,701699	0,017622	776105,961642
			0,017721	4,718626	0,017721	555982,076651
			0,017820	4,716964	0,017820	335359,238573
			0,017919	4,696658	0,017919	136393,229721
			0,018018	4,657711	0,018018	-26521,810509
			0,018117	4,600188	0,018117	-146192,374800
			0,018216	4,524224	0,018216	-221506,972613
			0,018315	4,430030	0,018315	-256010,704096
			0,018414	4,317894	0,018414	-256388,459770
			0,018513	4,188187	0,018513	-231025,699749
			0,018612	4,041358	0,018612	-188765,726836
			0,018711	3,877936	0,018711	-137933,244081
			0,018810	3,698530	0,018810	-85651,142660
			0,018909	3,503821	0,018909	-37442,762421
			0,019008	3,294561	0,019008	2913,237761
			0,019107	3,071574	0,019107	33324,035065
			0,019206	2,835746	0,019206	53175,833578
			0,019305	2,588030	0,019305	63035,127218
			0,019404	2,329436	0,019404	64309,008874
			0,019503	2,061035	0,019503	58906,913962
			0,019602	1,783951	0,019602	48935,681165
			0,019701	1,499354	0,019701	36448,706204
			0,019800	1,208460	0,019800	23260,386913
			0,019899	0,912517	0,019899	10827,409721
			0,019998	0,612797	0,019998	192,503884
			0,020097	0,310586	0,020097	-8019,004638
			0,020196	0,007165	0,020196	-13561,953980
			0,020295	-0,296196	0,020295	-16506,552109
			0,020394	-0,598261	0,020394	-17158,619441
			0,020493	-0,897831	0,020493	-15975,897865
			0,020592	-1,193764	0,020592	-13489,247582
			0,020691	-1,484979	0,020691	-10235,029132
			0,020790	-1,770459	0,020790	-6702,461333
			0,020889	-2,049255	0,020889	-3297,475885
			0,020988	-2,320479	0,020988	-322,684822
			0,021087	-2,583300	0,021087	2028,316594
			0,021186	-2,836925	0,021186	3665,039287
			0,021285	-3,080595	0,021285	4585,754282
			0,021384	-3,313559	0,021384	4857,957402
			0,021483	-3,535067	0,021483	4596,637969
			0,021582	-3,744352	0,021582	3942,877096
			0,021681	-3,940618	0,021681	3044,705915
			0,021780	-4,123041	0,021780	2041,511447
			0,021879	-4,290761	0,021879	1052,671331
			0,021978	-4,442893	0,021978	170,545287
			0,022077	-4,578541	0,022077	-542,469741
			0,022176	-4,696812	0,022176	-1053,431124
			0,022275	-4,796843	0,022275	-1355,683706
			0,022374	-4,877830	0,022374	-1463,902021
			0,022473	-4,939055	0,022473	-1408,187588
			0,022572	-4,979917	0,022572	-1227,971667
			0,022671	-4,999960	0,022671	-966,332027
			0,022770	-4,998894	0,022770	-665,162536
			0,022869	-4,976614	0,022869	-361,466154
			0,022968	-4,933211	0,022968	-84,877067
			0,023067	-4,868968	0,023067	143,613814
			0,023166	-4,784359	0,023166	311,862756
			0,023265	-4,680027	0,023265	415,909356
			0,023364	-4,556767	0,023364	458,685184
			0,023463	-4,415495	0,023463	448,343111
			0,023562	-4,257215	0,023562	396,439134
			0,023661	-4,082987	0,023661	316,164591
			0,023760	-3,893893	0,023760	220,781592
			0,023859	-3,691008	0,023859	122,364994
			0,023958	-3,475374	0,023958	30,905420
			0,024057	-3,247984	0,024057	-46,216324
			0,024156	-3,009771	0,024156	-104,408767
			0,024255	-2,761605	0,024255	-141,755251
			0,024354	-2,504297	0,024354	-158,673789
			0,024453	-2,238616	0,024453	-157,426779
			0,024552	-1,965301	0,024552	-141,554906
			0,024651	-1,685089	0,024651	-115,301881
			0,024750	-1,398731	0,024750	-83,084551
			0,024849	-1,107021	0,024849	-49,048244
			0,024948	-0,810817	0,024948	-16,731724
			0,025047	-0,511050	0,025047	11,148422
			0,025146	-0,208744	0,025146	32,796900
			0,025245	0,094986	0,025245	47,335254
			0,025344	0,398936	0,025344	54,713693
			0,025443	0,701820	0,025443	55,562913
			0,025542	1,002287	0,025542	51,010599
			0,025641	1,298943	0,025641	42,485899
			0,025740	1,590372	0,025740	31,531917
			0,025839	1,875166	0,025839	19,641844
			0,025938	2,151943	0,025938	8,129363
			0,026037	2,419381	0,026037	-1,961106
			0,026136	2,676231	0,026136	-9,903342
			0,026235	2,921338	0,026235	-15,300308
			0,026334	3,153650	0,026334	-18,062993
			0,026433	3,372231	0,026433	-18,364736
			0,026532	3,576252	0,026532	-16,579523
			0,026631	3,765000	0,026631	-13,212682
			0,026730	3,937862	0,026730	-8,831603
			0,026829	4,094322	0,026829	-4,002750
			0,026928	4,233944	0,026928	0,760403
			0,027027	4,356367	0,027027	5,035685
			0,027126	4,461286	0,027126	8,515674
			0,027225	4,548451	0,027225	11,016704
			0,027324	4,617650	0,027324	12,475045
			0,027423	4,668713	0,027423	12,932792
			0,027522	4,701500	0,027522	12,516459
			0,027621	4,715908	0,027621	11,411419
			0,027720	4,711872	0,027720	9,835210
			0,027819	4,689364	0,027819	8,012292
			0,027918	4,648404	0,027918	6,152289
			0,028017	4,589061	0,028017	4,433127
			0,028116	4,511463	0,028116	2,989773
			0,028215	4,415800	0,028215	1,908696
			0,028314	4,302331	0,028314	1,227627
			0,028413	4,171386	0,028413	0,939790
			0,028512	4,023372	0,028512	1,001512
			0,028611	3,858775	0,028611	1,341999
			0,028710	3,678162	0,028710	1,874053
			0,028809	3,482179	0,028809	2,504622
			0,028908	3,271558	0,028908	3,144263
			0,029007	3,047109	0,029007	3,714831
			0,029106	2,809723	0,029106	4,154986
			0,029205	2,560370	0,029205	4,423344
			0,029304	2,300092	0,029304	4,499357
			0,029403	2,029999	0,029403	4,382185
			0,029502	1,751264	0,029502	4,087953
			0,029601	1,465113	0,029601	3,645885
			0,029700	1,172815	0,029700	3,093832
			0,029799	0,875666	0,029799	2,473671
			0,029898	0,574983	0,029898	1,827012
			0,029997	0,272081	0,029997	1,191548
			0,030096	-0,031737	0,030096	0,598285
			0,030195	-0,335198	0,030195	0,069765
			0,030294	-0,637071	0,030294	-0,380698
			0,030393	-0,936178	0,030393	-0,748841
			0,030492	-1,231405	0,030492	-1,038490
			0,030591	-1,521706	0,030591	-1,260008
			0,030690	-1,806104	0,030690	-1,428368
			0,030789	-2,083686	0,030789	-1,561079
			0,030888	-2,353598	0,030888	-1,676167
			0,030987	-2,615035	0,030987	-1,790389
			0,031086	-2,867224	0,031086	-1,917796
			0,031185	-3,109410	0,031185	-2,068735
			0,031284	-3,340843	0,031284	-2,249319
			0,031383	-3,560760	0,031383	-2,461339
			0,031482	-3,768376	0,031482	-2,702583
			0,031581	-3,962876	0,031581	-2,967469
			0,031680	-4,143409	0,031680	-3,247899
			0,031779	-4,309100	0,031779	-3,534231
			0,031878	-4,459049	0,031878	-3,816264
			0,031977	-4,592354	0,031977	-4,084156
			0,032076	-4,708131	0,032076	-4,329192
			0,032175	-4,805534	0,032175	-4,544367
			0,032274	-4,883789	0,032274	-4,724739
			0,032373	-4,942219	0,032373	-4,867573
			0,032472	-4,980271	0,032472	-4,972269
			0,032571	-4,997544	0,032571	-5,040115
			0,032670	-4,993802	0,032670	-5,073919
			0,032769	-4,968993	0,032769	-5,077552
			0,032868	-4,923253	0,032868	-5,055457
			0,032967	-4,856902	0,032967	-5,012184
			0,033066	-4,770435	0,033066	-4,951970
			0,033165	-4,664505	0,033165	-4,878409
			0,033264	-4,539898	0,033264	-4,794228
			0,033363	-4,397508	0,033363	-4,701171
			0,033462	-4,238304	0,033462	-4,599988
			0,033561	-4,063300	0,033561	-4,490528
			0,033660	-3,873524	0,033660	-4,371903
			0,033759	-3,669997	0,033759	-4,242702
			0,033858	-3,453708	0,033858	-4,101238
			0,033957	-3,225601	0,033957	-3,945793
			0,034056	-2,986572	0,034056	-3,774842
			0,034155	-2,737465	0,034155	-3,587240
			0,034254	-2,479081	0,034254	-3,382353
			0,034353	-2,212194	0,034353	-3,160142
			0,034452	-1,937563	0,034452	-2,921175
			0,034551	-1,655958	0,034551	-2,666595
			0,034650	-1,368178	0,034650	-2,398037
			0,034749	-1,075068	0,034749	-2,117512
			0,034848	-0,777543	0,034848	-1,827279
			0,034947	-0,476593	0,034947	-1,529696
			0,035046	-0,173294	0,035046	-1,227095
			0,035145	0,131193	0,035145	-0,921662
			0,035244	0,435628	0,035244	-0,615352
			0,035343	0,738701	0,035343	-0,309829
			0,035442	1,039053	0,035442	-0,006445
			0,035541	1,335291	0,035541	0,293752
			0,035640	1,626018	0,035640	0,589985
			0,035739	1,909849	0,035739	0,881688
			0,035838	2,185439	0,035838	1,168435
			0,035937	2,451506	0,035937	1,449864
			0,036036	2,706841	0,036036	1,725601
			0,036135	2,950330	0,036135	1,995200
			0,036234	3,180959	0,036234	2,258084
			0,036333	3,397817	0,036333	2,513521
			0,036432	3,600101	0,036432	2,760608
			0,036531	3,787109	0,036531	2,998286
			0,036630	3,958231	0,036630	3,225361
			0,036729	4,112945	0,036729	3,440549
			0,036828	4,250805	0,036828	3,642531
			0,036927	4,371430	0,036927	3,830005
			0,037026	4,474497	0,037026	4,001748
			0,037125	4,559733	0,037125	4,156665
			0,037224	4,626908	0,037224	4,293831
			0,037323	4,675835	0,037323	4,412525
			0,037422	4,706367	0,037422	4,512238
			0,037521	4,718400	0,037521	4,592681
			0,037620	4,711872	0,037620	4,653769
			0,037719	4,686771	0,037719	4,695594
			0,037818	4,643139	0,037818	4,718395
			0,037917	4,581074	0,037917	4,722516
			0,038016	4,500737	0,038016	4,708365
			0,038115	4,402355	0,038115	4,676374
			0,038214	4,286225	0,038214	4,626969
			0,038313	4,152715	0,038313	4,560537
			0,038412	4,002268	0,038412	4,477417
			0,038511	3,835400	0,038511	4,377888
			0,038610	3,652701	0,038610	4,262183
			0,038709	3,454837	0,038709	4,130494
			0,038808	3,242548	0,038808	3,983002
			0,038907	3,016647	0,038907	3,819907
			0,039006	2,778021	0,039006	3,641454
			0,039105	2,527627	0,039105	3,447968
			0,039204	2,266491	0,039204	3,239886
			0,039303	1,995702	0,039303	3,017774
			0,039402	1,716410	0,039402	2,782350
			0,039501	1,429817	0,039501	2,534486
			0,039600	1,137169	0,039600	2,275209
			0,039699	0,839746	0,039699	2,005690
			0,039798	0,538846	0,039798	1,727224
			0,039897	0,235776	0,039897	1,441201
			0,039996	-0,068165	0,039996	1,149079
			0,040095	-0,371700	0,040095	0,852347
			0,040194	-0,673590	0,040194	0,552488
			0,040293	-0,972641	0,040293	0,250952
			0,040392	-1,267720	0,040392	-0,050876
			0,040491	-1,557757	0,040491	-0,351700
			0,040590	-1,841749	0,040590	-0,650323
			0,040689	-2,118759	0,040689	-0,945659
			0,040788	-2,387910	0,040788	-1,236733
			0,040887	-2,648375	0,040887	-1,522668
			0,040986	-2,899367	0,040986	-1,802673
			0,041085	-3,140126	0,041085	-2,076027
			0,041184	-3,369898	0,041184	-2,342048
			0,041283	-3,587931	0,041283	-2,600076
			0,041382	-3,793454	0,041382	-2,849448
			0,041481	-3,985676	0,041481	-3,089474
			0,041580	-4,163778	0,041580	-3,319424
			0,041679	-4,326916	0,041679	-3,538514
			0,041778	-4,474230	0,041778	-3,745907
			0,041877	-4,604856	0,041877	-3,940708
			0,041976	-4,717944	0,041976	-4,121980
			0,042075	-4,812683	0,042075	-4,288753
			0,042174	-4,888327	0,042174	-4,440052
			0,042273	-4,944218	0,042273	-4,574914
			0,042372	-4,979817	0,042372	-4,692421
			0,042471	-4,994726	0,042471	-4,791725
			0,042570	-4,988709	0,042570	-4,872074
			0,042669	-4,961706	0,042669	-4,932839
			0,042768	-4,913837	0,042768	-4,973533
			0,042867	-4,845408	0,042867	-4,993825
			0,042966	-4,756897	0,042966	-4,993551
			0,043065	-4,648943	0,043065	-4,972720
			0,043164	-4,522324	0,043164	-4,931506
			0,043263	-4,377929	0,043263	-4,870244
			0,043362	-4,216733	0,043362	-4,789413
			0,043461	-4,039761	0,043461	-4,689621
			0,043560	-3,848064	0,043560	-4,571581
			0,043659	-3,642688	0,043659	-4,436092
			0,043758	-3,424655	0,043758	-4,284013
			0,043857	-3,194946	0,043857	-4,116242
			0,043956	-2,954492	0,043956	-3,933697
			0,044055	-2,704169	0,044055	-3,737296
			0,044154	-2,444806	0,044154	-3,527949
			0,044253	-2,177192	0,044253	-3,306542
			0,044352	-1,902097	0,044352	-3,073939
			0,044451	-1,620283	0,044451	-2,830977
			0,044550	-1,332532	0,044550	-2,578472
			0,044649	-1,039663	0,044649	-2,317227
			0,044748	-0,742551	0,044748	-2,048037
			0,044847	-0,442142	0,044847	-1,771708
			0,044946	-0,139463	0,044946	-1,489062
			0,045045	0,164372	0,045045	-1,200952
			0,045144	0,468165	0,045144	-0,908276
			0,045243	0,770640	0,045243	-0,611978
			0,045342	1,070460	0,045342	-0,313064
			0,045441	1,366239	0,045441	-0,012596
			0,045540	1,656571	0,045540	0,288300
			0,045639	1,940046	0,045639	0,588443
			0,045738	2,215281	0,045738	0,886606
			0,045837	2,480940	0,045837	1,181519
			0,045936	2,735757	0,045936	1,471888
			0,046035	2,978553	0,046035	1,756409
			0,046134	3,208254	0,046134	2,033785
			0,046233	3,423896	0,046233	2,302741
			0,046332	3,624633	0,046332	2,562043
			0,046431	3,809739	0,046431	2,810514
			0,046530	3,978600	0,046530	3,047050
			0,046629	4,130709	0,046629	3,270628
			0,046728	4,265659	0,046728	3,480320
			0,046827	4,383128	0,046827	3,675301
			0,046926	4,482868	0,046926	3,854847
			0,047025	4,564693	0,047025	4,018341
			0,047124	4,628468	0,047124	4,165269
			0,047223	4,674099	0,047223	4,295213
			0,047322	4,701528	0,047322	4,407847
			0,047421	4,710726	0,047421	4,502925
			0,047520	4,701687	0,047520	4,580274
			0,047619	4,674438	0,047619	4,639781
			0,047718	4,629028	0,047718	4,681383
			0,047817	4,565545	0,047817	4,705059
			0,047916	4,484111	0,047916	4,710819
			0,048015	4,384898	0,048015	4,698705
			0,048114	4,268129	0,048114	4,668779
			0,048213	4,134091	0,048213	4,621126
			0,048312	3,983141	0,048312	4,555857
			0,048411	3,815715	0,048411	4,473109
			0,048510	3,632332	0,048510	4,373055
			0,048609	3,433605	0,048609	4,255910
			0,048708	3,220238	0,048708	4,121942
			0,048807	2,993036	0,048807	3,971481
			0,048906	2,752897	0,048906	3,804927
			0,049005	2,500812	0,049005	3,622766
			0,049104	2,237861	0,049104	3,425572
			0,049203	1,965204	0,049203	3,214014
			0,049302	1,684067	0,049302	2,988862
			0,049401	1,395733	0,049401	2,750985
			0,049500	1,101524	0,049500	2,501351
			0,049599	0,802785	0,049599	2,241015
			0,049698	0,500865	0,049698	1,971116
			0,049797	0,197105	0,049797	1,692861
			0,049896	-0,107188	0,049896	1,407509
			0,049995	-0,410744	0,049995	1,116359
			0,050094	-0,712353	0,050094	0,820727
			0,050193	-1,010867	0,050193	0,521931
			0,050292	-1,305207	0,050292	0,221275
			0,050391	-1,594364	0,050391	-0,079972
			0,050490	-1,877394	0,050490	-0,380584
			0,050589	-2,153414	0,050589	-0,679391
			0,050688	-2,421586	0,050688	-0,975282
			0,050787	-2,681109	0,050787	-1,267217
			0,050886	-2,931202	0,050886	-1,554216
			0,050985	-3,171088	0,050985	-1,835362
			0,051084	-3,399985	0,051084	-2,109789
			0,051183	-3,617090	0,051183	-2,376675
			0,051282	-3,821576	0,051282	-2,635230
			0,051381	-4,012586	0,051381	-2,884679
			0,051480	-4,189239	0,051480	-3,124258
			0,051579	-4,350636	0,051579	-3,353195
			0,051678	-4,495876	0,051678	-3,570703
			0,051777	-4,624070	0,051777	-3,775980
			0,051876	-4,734368	0,051876	-3,968197
			0,051975	-4,825982	0,051975	-4,146511
			0,052074	-4,898210	0,052074	-4,310062
			0,052173	-4,950464	0,052173	-4,457992
			0,052272	-4,982289	0,052272	-4,589453
			0,052371	-4,993385	0,052371	-4,703632
			0,052470	-4,983617	0,052470	-4,799764
			0,052569	-4,953026	0,052569	-4,877159
			0,052668	-4,901822	0,052668	-4,935223
			0,052767	-4,830388	0,052767	-4,973475
			0,052866	-4,739255	0,052866	-4,991568
			0,052965	-4,629093	0,052965	-4,989302
			0,053064	-4,500682	0,053064	-4,966634
			0,053163	-4,354887	0,053163	-4,923680
			0,053262	-4,192635	0,053262	-4,860717
			0,053361	-4,014885	0,053361	-4,778174
			0,053460	-3,822603	0,053460	-4,676621
			0,053559	-3,616747	0,053559	-4,556752
			0,053658	-3,398250	0,053658	-4,419361
			0,053757	-3,168009	0,053757	-4,265326
			0,053856	-2,926885	0,053856	-4,095578
			0,053955	-2,675705	0,053955	-3,911079
			0,054054	-2,415271	0,054054	-3,712802
			0,054153	-2,146370	0,054153	-3,501710
			0,054252	-1,869792	0,054252	-3,278738
			0,054351	-1,586349	0,054351	-3,044788
			0,054450	-1,296887	0,054450	-2,800721
			0,054549	-1,002304	0,054549	-2,547358
			0,054648	-0,703562	0,054648	-2,285484
			0,054747	-0,401696	0,054747	-2,015865
			0,054846	-0,097818	0,054846	-1,739255
			0,054945	0,206888	0,054945	-1,456419
			0,055044	0,511168	0,055044	-1,168148
			0,055143	0,813711	0,055143	-0,875277
			0,055242	1,113165	0,055242	-0,578701
			0,055341	1,408157	0,055341	-0,279391
			0,055440	1,697308	0,055440	0,021604
			0,055539	1,979257	0,055539	0,323149
			0,055638	2,252682	0,055638	0,624029
			0,055737	2,516317	0,055737	0,922954
			0,055836	2,768967	0,055836	1,218577
			0,055935	3,009524	0,055935	1,509514
			0,056034	3,236974	0,056034	1,794360
			0,056133	3,450404	0,056133	2,071725
			0,056232	3,649003	0,056232	2,340249
			0,056331	3,832061	0,056331	2,598637
			0,056430	3,998968	0,056430	2,845678
			0,056529	4,149205	0,056529	3,080262
			0,056628	4,282339	0,056628	3,301403
			0,056727	4,398012	0,056727	3,508239
			0,056826	4,495937	0,056826	3,700042
			0,056925	4,575889	0,056925	3,876212
			0,057024	4,637697	0,057024	4,036268
			0,057123	4,681237	0,057123	4,179838
			0,057222	4,706433	0,057222	4,306638
			0,057321	4,713249	0,057321	4,416456
			0,057420	4,701687	0,057420	4,509132
			0,057519	4,671791	0,057519	4,584539
			0,057618	4,623644	0,057618	4,642568
			0,057717	4,557369	0,057717	4,683117
			0,057816	4,473138	0,057816	4,706081
			0,057915	4,371167	0,057915	4,711355
			0,058014	4,251728	0,058014	4,698832
			0,058113	4,115151	0,058113	4,668418
			0,058212	3,961828	0,058212	4,620041
			0,058311	3,792222	0,058311	4,553668
			0,058410	3,606871	0,058410	4,469327
			0,058509	3,406392	0,058509	4,367121
			0,058608	3,191488	0,058608	4,247250
			0,058707	2,962949	0,058707	4,110019
			0,058806	2,721654	0,058806	3,955855
			0,058905	2,468573	0,058905	3,785308
			0,059004	2,204760	0,059004	3,599051
			0,059103	1,931349	0,059103	3,397872
			0,059202	1,649547	0,059202	3,182667
			0,059301	1,360620	0,059301	2,954419
			0,059400	1,065879	0,059400	2,714181
			0,059499	0,766667	0,059499	2,463052
			0,059598	0,464339	0,059598	2,202163
			0,059697	0,160243	0,059697	1,932648
			0,059796	-0,144295	0,059796	1,655636
			0,059895	-0,447990	0,059895	1,372234
			0,059994	-0,749608	0,059994	1,083524
			0,060093	-1,047983	0,060093	0,790559
			0,060192	-1,342016	0,060192	0,494367
			0,060291	-1,630686	0,060291	0,195962
			0,060390	-1,913040	0,060390	-0,103647
			0,060489	-2,188189	0,060489	-0,403443
			0,060588	-2,455302	0,060588	-0,702387
			0,060687	-2,713586	0,060687	-0,999408
			0,060786	-2,962274	0,060786	-1,293397
			0,060885	-3,200610	0,060885	-1,583207
			0,060984	-3,427832	0,060984	-1,867653
			0,061083	-3,643162	0,061083	-2,145530
			0,061182	-3,845795	0,061182	-2,415623
			0,061281	-4,034898	0,061281	-2,676736
			0,061380	-4,209608	0,061380	-2,927714
			0,061479	-4,369041	0,061479	-3,167468
			0,061578	-4,512305	0,061578	-3,395002
			0,061677	-4,638519	0,061677	-3,609433
			0,061776	-4,746832	0,061776	-3,810006
			0,061875	-4,836452	0,061875	-3,996095
			0,061974	-4,906668	0,061974	-4,167204
			0,062073	-4,956882	0,062073	-4,322948
			0,062172	-4,986626	0,062172	-4,463033
			0,062271	-4,995587	0,062271	-4,587218
			0,062370	-4,983617	0,062370	-4,695286
			0,062469	-4,950747	0,062469	-4,786999
			0,062568	-4,897184	0,062568	-4,862068
			0,062667	-4,823305	0,062667	-4,920122
			0,062766	-4,729648	0,062766	-4,960690
			0,062865	-4,616892	0,062865	-4,983204
			0,062964	-4,485832	0,062964	-4,987010
			0,063063	-4,337358	0,063063	-4,971399
			0,063162	-4,172422	0,063162	-4,935664
			0,063261	-3,992016	0,063261	-4,879160
			0,063360	-3,797142	0,063360	-4,801379
			0,063459	-3,588796	0,063459	-4,702032
			0,063558	-3,367949	0,063558	-4,581122
			0,063657	-3,135534	0,063657	-4,439011
			0,063756	-2,892446	0,063756	-4,276467
			0,063855	-2,639540	0,063855	-4,094682
			0,063954	-2,377640	0,063954	-3,895262
			0,064053	-2,107547	0,064053	-3,680183
			0,064152	-1,830058	0,064152	-3,451707
			0,064251	-1,545981	0,064251	-3,212278
			0,064350	-1,256150	0,064350	-2,964375
			0,064449	-0,961443	0,064449	-2,710366
			0,064548	-0,662799	0,064548	-2,452351
			0,064647	-0,361220	0,064647	-2,192013
			0,064746	-0,057784	0,064746	-1,930501
			0,064845	0,246355	0,064845	-1,668349
			0,064944	0,549975	0,064944	-1,405446
			0,065043	0,851792	0,065043	-1,141069
			0,065142	1,150472	0,065142	-0,873981
			0,065241	1,444651	0,065241	-0,602589
			0,065340	1,732953	0,065340	-0,325157
			0,065439	2,014008	0,065439	-0,040068
			0,065538	2,286475	0,065538	0,253904
			0,065637	2,549063	0,065637	0,557321
			0,065736	2,800547	0,065736	0,869834
			0,065835	3,039783	0,065835	1,190006
			0,065934	3,265726	0,065934	1,515203
			0,066033	3,477430	0,066033	1,841607
			0,066132	3,674064	0,066132	2,164335
			0,066231	3,854903	0,066231	2,477688
			0,066330	4,019337	0,066330	2,775507
			0,066429	4,166858	0,066429	3,051631
			0,066528	4,297059	0,066528	3,300408
			0,066627	4,409623	0,066627	3,517238
			0,066726	4,504313	0,066726	3,699073
			0,066825	4,580964	0,066825	3,844841
			0,066924	4,639470	0,066924	3,955733
			0,067023	4,679775	0,067023	4,035299
			0,067122	4,701864	0,067122	4,089337
			0,067221	4,705757	0,067221	4,125531
			0,067320	4,691503	0,067320	4,152868
			0,067419	4,659174	0,067419	4,180834
			0,067518	4,608868	0,067518	4,218463
			0,067617	4,540704	0,067617	4,273298
			0,067716	4,454834	0,067716	4,350361
			0,067815	4,351439	0,067815	4,451243
			0,067914	4,230744	0,067914	4,573415
			0,068013	4,093022	0,068013	4,709873
			0,068112	3,938609	0,068112	4,849192
			0,068211	3,767909	0,068211	4,976058
			0,068310	3,581410	0,068310	5,072286
			0,068409	3,379690	0,068409	5,118298
			0,068508	3,163426	0,068508	5,094983
			0,068607	2,933401	0,068607	4,985799
			0,068706	2,690504	0,068706	4,778949
			0,068805	2,435732	0,068805	4,469410
			0,068904	2,170184	0,068904	4,060582
			0,069003	1,895049	0,069003	3,565327
			0,069102	1,611600	0,069102	3,006193
			0,069201	1,321171	0,069201	2,414660
			0,069300	1,025142	0,069300	1,829327
			0,069399	0,724914	0,069399	1,293059
			0,069498	0,421892	0,069498	0,849204
			0,069597	0,117461	0,069597	0,537138
			0,069696	-0,187037	0,069696	0,387470
			0,069795	-0,490315	0,069795	0,417362
			0,069894	-0,791158	0,069894	0,626486
			0,069993	-1,088428	0,069993	0,994122
			0,070092	-1,381075	0,070092	1,477949
			0,070191	-1,668126	0,070191	2,014906
			0,070290	-1,948685	0,070290	2,524443
			0,070389	-2,221918	0,070389	2,914210
			0,070488	-2,487040	0,070488	3,088046
			0,070587	-2,743298	0,070587	2,955824
			0,070686	-2,989952	0,070686	2,444440
			0,070785	-3,226259	0,070785	1,508998
			0,070884	-3,451460	0,070884	0,143020
			0,070983	-3,664763	0,070983	-1,613579
			0,071082	-3,865346	0,071082	-3,670041
			0,071181	-4,052349	0,071181	-5,884970
			0,071280	-4,224884	0,071280	-8,072068
			0,071379	-4,382045	0,071379	-10,011840
			0,071478	-4,522926	0,071478	-11,469161
			0,071577	-4,646641	0,071577	-12,215966
			0,071676	-4,752350	0,071676	-12,057586
			0,071775	-4,839283	0,071775	-10,860638
			0,071874	-4,906770	0,071874	-8,579721
			0,071973	-4,954258	0,071973	-5,279817
			0,072072	-4,981339	0,072072	-1,151080
			0,072171	-4,987760	0,072171	3,487127
			0,072270	-4,973433	0,072270	8,195568
			0,072369	-4,938440	0,072369	12,439570
			0,072468	-4,883027	0,072468	15,628996
			0,072567	-4,807597	0,072567	17,172594
			0,072666	-4,712690	0,072666	16,543790
			0,072765	-4,598968	0,072765	13,353062
			0,072864	-4,467190	0,072864	7,420378
			0,072963	-4,318187	0,072963	-1,160303
			0,073062	-4,152842	0,073062	-11,973251
			0,073161	-3,972064	0,073161	-24,258799
			0,073260	-3,776773	0,073260	-36,924771
			0,073359	-3,567885	0,073359	-48,597571
			0,073458	-3,346301	0,073458	-57,715954
			0,073557	-3,112904	0,073557	-62,666430
			0,073656	-2,868557	0,073656	-61,954577
			0,073755	-2,614113	0,073755	-54,400995
			0,073854	-2,350418	0,073854	-39,345743
			0,073953	-2,078324	0,073953	-16,840171
			0,074052	-1,798700	0,074052	12,198124
			0,074151	-1,512447	0,074151	45,893091
			0,074250	-1,220505	0,074250	81,405515
			0,074349	-0,923861	0,074349	115,036590
			0,074448	-0,623561	0,074448	142,453365
			0,074547	-0,320705	0,074547	159,038779
			0,074646	-0,016448	0,074646	160,356864
			0,074745	0,288002	0,074745	142,706365
			0,074844	0,591396	0,074844	103,722283
			0,074943	0,892453	0,074943	42,967630
			0,075042	1,189874	0,075042	-37,554082
			0,075141	1,482354	0,075141	-133,043330
			0,075240	1,768598	0,075240	-235,784951
			0,075339	2,047336	0,075339	-335,336065
			0,075438	2,317332	0,075438	-419,075456
			0,075537	2,577401	0,075537	-473,141621
			0,075636	2,826417	0,075636	-483,747820
			0,075735	3,063323	0,075735	-438,817581
			0,075834	3,287135	0,075834	-329,832428
			0,075933	3,496948	0,075933	-153,732153
			0,076032	3,691941	0,076032	85,339467
			0,076131	3,871380	0,076131	374,685633
			0,076230	4,034613	0,076230	692,363664
			0,076329	4,181078	0,076329	1007,398848
			0,076428	4,310296	0,076428	1281,118712
			0,076527	4,421870	0,076527	1469,742425
			0,076626	4,515485	0,076626	1528,256513
			0,076725	4,590903	0,076725	1415,463387
			0,076824	4,647958	0,076824	1099,919805
			0,076923	4,686553	0,076923	566,307415
			0,077022	4,706652	0,077022	-178,401661
			0,077121	4,708278	0,077121	-1099,767665
			0,077220	4,691503	0,077220	-2132,578642
			0,077319	4,656444	0,077319	-3180,323907
			0,077418	4,603258	0,077418	-4118,280237
			0,077517	4,532139	0,077517	-4800,832573
			0,077616	4,443314	0,077616	-5073,358232
			0,077715	4,337045	0,077715	-4788,518660
			0,077814	4,213628	0,077814	-3826,254801
			0,077913	4,073399	0,077913	-2116,139447
			0,078012	3,916742	0,078012	339,932256
			0,078111	3,744091	0,078111	3447,351195
			0,078210	3,555950	0,078210	7003,831289
			0,078309	3,352891	0,078309	10693,254443
			0,078408	3,135574	0,078408	14091,654853
			0,078507	2,904751	0,078507	16688,145560
			0,078606	2,661272	0,078606	17922,717605
			0,078705	2,406088	0,078705	17241,194528
			0,078804	2,140254	0,078804	14165,857551
			0,078903	1,864917	0,078903	8377,711396
			0,079002	1,581313	0,079002	-196,173045
			0,079101	1,290750	0,079101	-11299,435531
			0,079200	0,994589	0,079200	-24278,865282
			0,079299	0,694223	0,079299	-38045,617823
			0,079398	0,391058	0,079398	-51078,899544
			0,079497	0,086485	0,079497	-61484,871163
			0,079596	-0,218138	0,079596	-67120,574623
			0,079695	-0,521506	0,079695	-65787,654194
			0,079794	-0,822388	0,079794	-55494,308993
			0,079893	-1,119629	0,079893	-34773,399882
			0,079992	-1,412160	0,079992	-3035,358248
			0,080091	-1,698999	0,080091	39077,563737
			0,080190	-1,979238	0,080190	89379,892113
			0,080289	-2,252038	0,080289	143927,513693
			0,080388	-2,516610	0,080388	196956,794874
			0,080487	-2,772198	0,080487	241036,454197
			0,080586	-3,018058	0,080586	267483,306366
			0,080685	-3,253444	0,080685	267074,536531
			0,080784	-3,477587	0,080784	231067,353176
			0,080883	-3,689692	0,080883	152494,710557
			0,080982	-3,888922	0,080982	27666,035251
			0,081081	-4,074409	0,081081	-142251,615176
			0,081180	-4,245253	0,081180	-349748,362988
			0,081279	-4,400539	0,081279	-579806,722678
			0,081378	-4,539356	0,081378	-809318,662576
			0,081477	-4,660819	0,081477	-1007360,388376
			0,081576	-4,764097	0,081576	-1136588,327994
			0,081675	-4,848437	0,081675	-1155962,970340
			0,081774	-4,913194	0,081774	-1024914,500559
			0,081873	-4,957850	0,081873	-708909,204091
			0,081972	-4,982037	0,081972	-186184,684848
			0,082071	-4,985547	0,082071	544817,953711
			0,082170	-4,968341	0,082170	1458054,697055
			0,082269	-4,930548	0,082269	2493506,469603
			0,082368	-4,872458	0,082368	3553049,519971
			0,082467	-4,794510	0,082467	4499937,320373
			0,082566	-4,697270	0,082566	5163283,735825
			0,082665	-4,581416	0,082665	5348808,939106
			0,082764	-4,447710	0,082764	4856690,636125
			0,082863	-4,296974	0,082863	3506809,526647
			0,082962	-4,130073	0,082962	1170730,899673
			0,083061	-3,947890	0,083061	-2191355,952523
			0,083160	-3,751312	0,083160	-6491870,842204
			0,083259	-3,541224	0,083259	-1,147982E+7
			0,083358	-3,318494	0,083358	-1,671348E+7
			0,083457	-3,083984	0,083457	-2,154886E+7
			0,083556	-2,838541	0,083556	-2,515170E+7
			0,083655	-2,583015	0,083655	-2,654035E+7
			0,083754	-2,318260	0,083754	-2,466594E+7
			0,083853	-2,045148	0,083853	-1,853333E+7
			0,083952	-1,764579	0,083952	-7362084,882382
			0,084051	-1,477490	0,084051	9218655,238566
			0,084150	-1,184859	0,084150	3,095531E+7
			0,084249	-0,887717	0,084249	5,675676E+7
			0,084348	-0,587139	0,084348	8,451378E+7
			0,084447	-0,284252	0,084447	1,109894E+8
			0,084546	0,019777	0,084546	1,318250E+8
			0,084645	0,323743	0,084645	1,417086E+8
			0,084744	0,626415	0,084744	1,347485E+8
			0,084843	0,926545	0,084843	1,050853E+8
			0,084942	1,222877	0,084942	4,775336E+7
			0,085041	1,514159	0,085041	-4,022500E+7
			0,085140	1,799151	0,085140	-1,585727E+8
			0,085239	2,076636	0,085239	-3,024266E+8
			0,085338	2,345424	0,085338	-4,611066E+8
			0,085437	2,604364	0,085437	-6,172068E+8
			0,085536	2,852347	0,085536	-7,462806E+8
			0,085635	3,088313	0,085635	-8,174234E+8
			0,085734	3,311255	0,085734	-7,950608E+8
			0,085833	3,520231	0,085833	-6,422113E+8
			0,085932	3,714365	0,085932	-3,253942E+8
			0,086031	3,892854	0,086031	1,788089E+8
			0,086130	4,054982	0,086130	8,757707E+8
			0,086229	4,200118	0,086229	1,743963E+9
			0,086328	4,327727	0,086328	2,726149E+9
			0,086427	4,437376	0,086427	3,721981E+9
			0,086526	4,528731	0,086526	4,583729E+9
			0,086625	4,601564	0,086625	5,117267E+9
			0,086724	4,655744	0,086724	5,090569E+9
			0,086823	4,691236	0,086823	4,251949E+9
			0,086922	4,708087	0,086922	2,359830E+9
			0,087021	4,706418	0,087021	-7,750793E+8
			0,087120	4,686411	0,087120	-5,235773E+9
			0,087219	4,648289	0,087219	-1,093578E+10
			0,087318	4,592307	0,087318	-1,755220E+10
			0,087417	4,518739	0,087417	-2,446354E+10
			0,087516	4,427865	0,087516	-3,070428E+10
			0,087615	4,319969	0,087615	-3,495153E+10
			0,087714	4,195336	0,087714	-3,556171E+10
			0,087813	4,054257	0,087813	-3,067598E+10
			0,087912	3,897038	0,087912	-1,841226E+10
			0,088011	3,724018	0,088011	2,843379E+9
			0,088110	3,535581	0,088110	3,404254E+10
			0,088209	3,332183	0,088209	7,498812E+10
			0,088308	3,114369	0,088308	1,237872E+11
			0,088407	2,882792	0,088407	1,763003E+11
			0,088506	2,638234	0,088506	2,256735E+11
			0,088605	2,381610	0,088605	2,620745E+11
			0,088704	2,113977	0,088704	2,727800E+11
			0,088803	1,836528	0,088803	2,427866E+11
			0,088902	1,550579	0,088902	1,561210E+11
			0,089001	1,257552	0,089001	-1,994534E+9
			0,089100	0,958944	0,089100	-2,420219E+11
			0,089199	0,656297	0,089199	-5,660395E+11
			0,089298	0,351165	0,089298	-9,628920E+11
			0,089397	0,045073	0,089397	-1,402948E+12
			0,089496	-0,260516	0,089496	-1,833136E+12
			0,089595	-0,564226	0,089595	-2,173256E+12
			0,089694	-0,864796	0,089694	-2,314907E+12
			0,089793	-1,161091	0,089793	-2,124677E+12
			0,089892	-1,452106	0,089892	-1,453470E+12
			0,089991	-1,736960	0,089991	-1,538136E+11
			0,090090	-2,014883	0,090090	1,893264E+12
			0,090189	-2,285188	0,090189	4,740995E+12
			0,090288	-2,547244	0,090288	8,329793E+12
			0,090387	-2,800444	0,090387	1,243289E+13
			0,090486	-3,044170	0,090486	1,660007E+13
			0,090585	-3,277765	0,090585	2,010838E+13
			0,090684	-3,500505	0,090684	2,193278E+13
			0,090783	-3,711590	0,090783	2,075413E+13
			0,090882	-3,910128	0,090882	1,502537E+13
			0,090981	-4,095150	0,090981	3,119533E+12
			0,091080	-4,265621	0,091080	-1,641755E+13
			0,091179	-4,420468	0,091179	-4,449156E+13
			0,091278	-4,558612	0,091278	-8,095424E+13
			0,091377	-4,679012	0,091377	-1,239807E+14
			0,091476	-4,780704	0,091476	-1,693723E+14
			0,091575	-4,862846	0,091575	-2,098689E+14
			0,091674	-4,924752	0,091674	-2,346063E+14
			0,091773	-4,965927	0,091773	-2,289159E+14
			0,091872	-4,986079	0,091872	-1,747285E+14
			0,091971	-4,985139	0,091971	-5,189677E+13
			0,092070	-4,963249	0,092070	1,592098E+14
			0,092169	-4,920751	0,092169	4,735015E+14
			0,092268	-4,858163	0,092268	8,951009E+14
			0,092367	-4,776145	0,092367	1,409354E+15
			0,092466	-4,675461	0,092466	1,973194E+15
			0,092565	-4,556938	0,092565	2,504671E+15
			0,092664	-4,421430	0,092664	2,873151E+15
			0,092763	-4,269781	0,092763	2,892669E+15
			0,092862	-4,102804	0,092862	2,321992E+15
			0,092961	-3,921260	0,092961	8,761241E+14
			0,093060	-3,725852	0,093060	-1,744930E+15
			0,093159	-3,517232	0,093159	-5,803724E+15
			0,093258	-3,296016	0,093258	-1,144306E+16
			0,093357	-3,062802	0,093357	-1,856929E+16
			0,093456	-2,818204	0,093456	-2,670078E+16
			0,093555	-2,562875	0,093555	-3,478791E+16
			0,093654	-2,297540	0,093654	-4,102234E+16
			0,093753	-2,023020	0,093753	-4,266880E+16
			0,093852	-1,740251	0,093852	-3,597386E+16
			0,093951	-1,450287	0,093951	-1,623106E+16
			0,094050	-1,154306	0,094050	2,188982E+16
			0,094149	-0,853595	0,094149	8,361554E+16
			0,094248	-0,549526	0,094248	1,727933E+17
			0,094347	-0,243533	0,094347	2,899169E+17
			0,094446	0,062925	0,094446	4,293472E+17
			0,094545	0,368399	0,094545	5,757135E+17
			0,094644	0,671484	0,094644	6,996683E+17
			0,094743	0,970848	0,094743	7,534632E+17
			0,094842	1,265255	0,094842	6,672568E+17
			0,094941	1,553577	0,094941	3,476753E+17
			0,095040	1,834797	0,095040	-3,190786E+17
			0,095139	2,107999	0,095139	-1,456371E+18
			0,095238	2,372354	0,095238	-3,174417E+18
			0,095337	2,627089	0,095337	-5,530861E+18
			0,095436	2,871461	0,095436	-8,469651E+18
			0,095535	3,104727	0,095535	-1,173420E+19
			0,095634	3,326112	0,095634	-1,475380E+19
			0,095733	3,534790	0,095733	-1,650818E+19
			0,095832	3,729869	0,095832	-1,538614E+19
			0,095931	3,910393	0,095931	-9,070341E+18
			0,096030	4,075351	0,096030	5,494118E+18
			0,096129	4,223703	0,096129	3,195652E+19
			0,096228	4,354415	0,096228	7,410869E+19
			0,096327	4,466509	0,096327	1,349414E+20
			0,096426	4,559108	0,096426	2,149782E+20
			0,096525	4,631491	0,096525	3,096240E+20
			0,096624	4,683145	0,096624	4,052801E+20
			0,096723	4,713802	0,096723	4,740810E+20
			0,096822	4,723471	0,096822	4,673722E+20
			0,096921	4,712449	0,096921	3,085835E+20
			0,097020	4,681319	0,097020	-1,129093E+20
			0,097119	4,630928	0,097119	-9,438022E+20
			0,097218	4,562344	0,097218	-2,359275E+21
			0,097317	4,476804	0,097317	-4,536922E+21
			0,097416	4,375647	0,097416	-7,598768E+21
			0,097515	4,260235	0,097515	-1,150226E+22
			0,097614	4,131885	0,097614	-1,585502E+22
			0,097713	3,991795	0,097713	-1,962309E+22
			0,097812	3,840983	0,097812	-2,070219E+22
			0,097911	3,680243	0,097911	-1,533286E+22
			0,098010	3,510120	0,098010	2,624102E+21
			0,098109	3,330899	0,098109	4,245341E+22
			0,098208	3,142629	0,098208	1,171277E+23
			0,098307	2,945152	0,098307	2,430493E+23
			0,098406	2,738169	0,098406	4,378563E+23
			0,098505	2,521299	0,098505	7,141863E+23
			0,098604	2,294163	0,098604	1,065667E+24
			0,098703	2,056463	0,098703	1,438715E+24
			0,098802	1,808059	0,098802	1,679381E+24
			0,098901	1,549035	0,098901	1,437561E+24

