LabVIEW Measurement	
Writer_Version	2
Reader_Version	2
Separator	Tab
Decimal_Separator	,
Multi_Headings	Yes
X_Columns	No
Time_Pref	Relative
Operator	Laboratoire
Date	2019/02/15
Time	14:59:18,7112798833529555282
***End_of_Header***	
	
Channels	6						
Samples	10	10	1000	1000	1000	1000	
Date	2019/02/15	2019/02/15	2019/02/15	2019/02/15	2019/02/15	2019/02/15	
Time	14:59:18,8122801780700683594	14:59:18,7112798833529555282	14:59:18,8122801780700683594	14:59:18,8122801780700683594	14:59:18,8122801780700683594	14:59:18,8122801780700683594	
Y_Unit_Label		Volts					
X_Dimension	Time	Time	Time	Time	Time	Time	
X0	0,0000000000000000E+0	0,0000000000000000E+0	0,0000000000000000E+0	0,0000000000000000E+0	0,0000000000000000E+0	0,0000000000000000E+0	
Delta_X	1,000000	0,010000	1,000000	1,000000	1,000000	1,000000	
***End_of_Header***							
X_Value	Untitled	Tension	Untitled 1	Untitled 2	Untitled 3	Untitled 4	Comment
	0,000000	2,445857	0,000000	2,445857	0,000000	2,445857
	0,010000	2,410212	9,000000E-5	2,447721	9,000000E-5	2,445434
	0,020000	2,379659	0,000180	2,449529	0,000180	2,445014
	0,030000	2,349106	0,000270	2,451281	0,000270	2,444597
	0,040000	2,318553	0,000360	2,452976	0,000360	2,444183
	0,050000	2,282907	0,000450	2,454614	0,000450	2,443772
	0,060000	2,247262	0,000540	2,456195	0,000540	2,443364
	0,070000	2,221801	0,000630	2,457718	0,000630	2,442958
	0,080000	2,186156	0,000720	2,459184	0,000720	2,442555
	0,090000	2,150511	0,000810	2,460592	0,000810	2,442155
			0,000900	2,461941	0,000900	2,441758
			0,000990	2,463233	0,000990	2,441363
			0,001080	2,464466	0,001080	2,440971
			0,001170	2,465641	0,001170	2,440581
			0,001260	2,466757	0,001260	2,440194
			0,001350	2,467816	0,001350	2,439810
			0,001440	2,468816	0,001440	2,439428
			0,001530	2,469758	0,001530	2,439049
			0,001620	2,470643	0,001620	2,438672
			0,001710	2,471469	0,001710	2,438297
			0,001800	2,472238	0,001800	2,437925
			0,001890	2,472950	0,001890	2,437555
			0,001980	2,473605	0,001980	2,437187
			0,002070	2,474203	0,002070	2,436822
			0,002160	2,474745	0,002160	2,436459
			0,002250	2,475230	0,002250	2,436098
			0,002340	2,475661	0,002340	2,435740
			0,002430	2,476036	0,002430	2,435383
			0,002520	2,476356	0,002520	2,435029
			0,002610	2,476622	0,002610	2,434677
			0,002700	2,476834	0,002700	2,434327
			0,002790	2,476993	0,002790	2,433979
			0,002880	2,477100	0,002880	2,433633
			0,002970	2,477155	0,002970	2,433289
			0,003060	2,477158	0,003060	2,432946
			0,003150	2,477111	0,003150	2,432606
			0,003240	2,477013	0,003240	2,432268
			0,003330	2,476867	0,003330	2,431931
			0,003420	2,476671	0,003420	2,431597
			0,003510	2,476428	0,003510	2,431264
			0,003600	2,476138	0,003600	2,430933
			0,003690	2,475802	0,003690	2,430603
			0,003780	2,475421	0,003780	2,430276
			0,003870	2,474994	0,003870	2,429950
			0,003960	2,474525	0,003960	2,429625
			0,004050	2,474012	0,004050	2,429302
			0,004140	2,473457	0,004140	2,428981
			0,004230	2,472862	0,004230	2,428662
			0,004320	2,472227	0,004320	2,428343
			0,004410	2,471552	0,004410	2,428027
			0,004500	2,470839	0,004500	2,427712
			0,004590	2,470090	0,004590	2,427398
			0,004680	2,469304	0,004680	2,427085
			0,004770	2,468483	0,004770	2,426774
			0,004860	2,467628	0,004860	2,426465
			0,004950	2,466740	0,004950	2,426157
			0,005040	2,465821	0,005040	2,425850
			0,005130	2,464870	0,005130	2,425544
			0,005220	2,463889	0,005220	2,425239
			0,005310	2,462880	0,005310	2,424936
			0,005400	2,461843	0,005400	2,424634
			0,005490	2,460780	0,005490	2,424333
			0,005580	2,459691	0,005580	2,424033
			0,005670	2,458578	0,005670	2,423734
			0,005760	2,457441	0,005760	2,423437
			0,005850	2,456282	0,005850	2,423140
			0,005940	2,455103	0,005940	2,422844
			0,006030	2,453903	0,006030	2,422550
			0,006120	2,452685	0,006120	2,422256
			0,006210	2,451449	0,006210	2,421964
			0,006300	2,450196	0,006300	2,421672
			0,006390	2,448928	0,006390	2,421381
			0,006480	2,447646	0,006480	2,421091
			0,006570	2,446351	0,006570	2,420802
			0,006660	2,445043	0,006660	2,420514
			0,006750	2,443724	0,006750	2,420226
			0,006840	2,442396	0,006840	2,419940
			0,006930	2,441059	0,006930	2,419654
			0,007020	2,439714	0,007020	2,419368
			0,007110	2,438362	0,007110	2,419084
			0,007200	2,437004	0,007200	2,418800
			0,007290	2,435643	0,007290	2,418517
			0,007380	2,434277	0,007380	2,418235
			0,007470	2,432909	0,007470	2,417953
			0,007560	2,431540	0,007560	2,417672
			0,007650	2,430170	0,007650	2,417391
			0,007740	2,428801	0,007740	2,417111
			0,007830	2,427433	0,007830	2,416831
			0,007920	2,426068	0,007920	2,416552
			0,008010	2,424706	0,008010	2,416274
			0,008100	2,423349	0,008100	2,415996
			0,008190	2,421997	0,008190	2,415718
			0,008280	2,420651	0,008280	2,415441
			0,008370	2,419313	0,008370	2,415165
			0,008460	2,417982	0,008460	2,414889
			0,008550	2,416660	0,008550	2,414613
			0,008640	2,415348	0,008640	2,414337
			0,008730	2,414046	0,008730	2,414062
			0,008820	2,412756	0,008820	2,413788
			0,008910	2,411477	0,008910	2,413513
			0,009000	2,410212	0,009000	2,413239
			0,009090	2,408960	0,009090	2,412966
			0,009180	2,407722	0,009180	2,412692
			0,009270	2,406499	0,009270	2,412419
			0,009360	2,405291	0,009360	2,412146
			0,009450	2,404100	0,009450	2,411873
			0,009540	2,402926	0,009540	2,411601
			0,009630	2,401769	0,009630	2,411329
			0,009720	2,400631	0,009720	2,411057
			0,009810	2,399511	0,009810	2,410785
			0,009900	2,398410	0,009900	2,410513
			0,009990	2,397328	0,009990	2,410242
			0,010080	2,396267	0,010080	2,409970
			0,010170	2,395226	0,010170	2,409699
			0,010260	2,394207	0,010260	2,409428
			0,010350	2,393208	0,010350	2,409157
			0,010440	2,392232	0,010440	2,408886
			0,010530	2,391277	0,010530	2,408616
			0,010620	2,390346	0,010620	2,408345
			0,010710	2,389436	0,010710	2,408074
			0,010800	2,388550	0,010800	2,407804
			0,010890	2,387688	0,010890	2,407533
			0,010980	2,386848	0,010980	2,407263
			0,011070	2,386033	0,011070	2,406992
			0,011160	2,385242	0,011160	2,406722
			0,011250	2,384474	0,011250	2,406452
			0,011340	2,383731	0,011340	2,406181
			0,011430	2,383012	0,011430	2,405911
			0,011520	2,382318	0,011520	2,405640
			0,011610	2,381648	0,011610	2,405370
			0,011700	2,381003	0,011700	2,405099
			0,011790	2,380383	0,011790	2,404829
			0,011880	2,379786	0,011880	2,404558
			0,011970	2,379215	0,011970	2,404288
			0,012060	2,378668	0,012060	2,404017
			0,012150	2,378145	0,012150	2,403747
			0,012240	2,377647	0,012240	2,403476
			0,012330	2,377173	0,012330	2,403205
			0,012420	2,376723	0,012420	2,402934
			0,012510	2,376297	0,012510	2,402663
			0,012600	2,375894	0,012600	2,402392
			0,012690	2,375515	0,012690	2,402121
			0,012780	2,375159	0,012780	2,401849
			0,012870	2,374827	0,012870	2,401578
			0,012960	2,374517	0,012960	2,401307
			0,013050	2,374230	0,013050	2,401035
			0,013140	2,373965	0,013140	2,400763
			0,013230	2,373721	0,013230	2,400491
			0,013320	2,373500	0,013320	2,400219
			0,013410	2,373299	0,013410	2,399947
			0,013500	2,373120	0,013500	2,399675
			0,013590	2,372961	0,013590	2,399403
			0,013680	2,372822	0,013680	2,399130
			0,013770	2,372702	0,013770	2,398858
			0,013860	2,372602	0,013860	2,398585
			0,013950	2,372521	0,013950	2,398312
			0,014040	2,372458	0,014040	2,398039
			0,014130	2,372413	0,014130	2,397765
			0,014220	2,372385	0,014220	2,397492
			0,014310	2,372375	0,014310	2,397219
			0,014400	2,372380	0,014400	2,396945
			0,014490	2,372402	0,014490	2,396671
			0,014580	2,372439	0,014580	2,396397
			0,014670	2,372491	0,014670	2,396123
			0,014760	2,372557	0,014760	2,395849
			0,014850	2,372637	0,014850	2,395574
			0,014940	2,372730	0,014940	2,395300
			0,015030	2,372836	0,015030	2,395025
			0,015120	2,372954	0,015120	2,394750
			0,015210	2,373083	0,015210	2,394475
			0,015300	2,373224	0,015300	2,394200
			0,015390	2,373375	0,015390	2,393924
			0,015480	2,373535	0,015480	2,393649
			0,015570	2,373705	0,015570	2,393373
			0,015660	2,373884	0,015660	2,393097
			0,015750	2,374071	0,015750	2,392821
			0,015840	2,374265	0,015840	2,392545
			0,015930	2,374466	0,015930	2,392269
			0,016020	2,374673	0,016020	2,391992
			0,016110	2,374886	0,016110	2,391716
			0,016200	2,375104	0,016200	2,391439
			0,016290	2,375326	0,016290	2,391162
			0,016380	2,375553	0,016380	2,390885
			0,016470	2,375783	0,016470	2,390608
			0,016560	2,376015	0,016560	2,390331
			0,016650	2,376250	0,016650	2,390053
			0,016740	2,376486	0,016740	2,389776
			0,016830	2,376724	0,016830	2,389498
			0,016920	2,376961	0,016920	2,389220
			0,017010	2,377199	0,017010	2,388942
			0,017100	2,377436	0,017100	2,388664
			0,017190	2,377672	0,017190	2,388386
			0,017280	2,377907	0,017280	2,388108
			0,017370	2,378139	0,017370	2,387829
			0,017460	2,378368	0,017460	2,387551
			0,017550	2,378594	0,017550	2,387272
			0,017640	2,378817	0,017640	2,386993
			0,017730	2,379035	0,017730	2,386715
			0,017820	2,379248	0,017820	2,386436
			0,017910	2,379456	0,017910	2,386157
			0,018000	2,379659	0,018000	2,385878
			0,018090	2,379855	0,018090	2,385598
			0,018180	2,380045	0,018180	2,385319
			0,018270	2,380227	0,018270	2,385040
			0,018360	2,380403	0,018360	2,384760
			0,018450	2,380570	0,018450	2,384481
			0,018540	2,380730	0,018540	2,384201
			0,018630	2,380881	0,018630	2,383921
			0,018720	2,381022	0,018720	2,383642
			0,018810	2,381155	0,018810	2,383362
			0,018900	2,381278	0,018900	2,383082
			0,018990	2,381391	0,018990	2,382802
			0,019080	2,381493	0,019080	2,382522
			0,019170	2,381585	0,019170	2,382242
			0,019260	2,381667	0,019260	2,381962
			0,019350	2,381737	0,019350	2,381682
			0,019440	2,381795	0,019440	2,381402
			0,019530	2,381842	0,019530	2,381122
			0,019620	2,381878	0,019620	2,380842
			0,019710	2,381901	0,019710	2,380562
			0,019800	2,381912	0,019800	2,380281
			0,019890	2,381910	0,019890	2,380001
			0,019980	2,381896	0,019980	2,379721
			0,020070	2,381869	0,020070	2,379441
			0,020160	2,381829	0,020160	2,379160
			0,020250	2,381776	0,020250	2,378880
			0,020340	2,381710	0,020340	2,378600
			0,020430	2,381631	0,020430	2,378320
			0,020520	2,381539	0,020520	2,378040
			0,020610	2,381433	0,020610	2,377759
			0,020700	2,381314	0,020700	2,377479
			0,020790	2,381181	0,020790	2,377199
			0,020880	2,381035	0,020880	2,376919
			0,020970	2,380876	0,020970	2,376639
			0,021060	2,380703	0,021060	2,376359
			0,021150	2,380516	0,021150	2,376079
			0,021240	2,380316	0,021240	2,375799
			0,021330	2,380103	0,021330	2,375519
			0,021420	2,379877	0,021420	2,375239
			0,021510	2,379637	0,021510	2,374959
			0,021600	2,379385	0,021600	2,374679
			0,021690	2,379119	0,021690	2,374400
			0,021780	2,378840	0,021780	2,374120
			0,021870	2,378549	0,021870	2,373841
			0,021960	2,378245	0,021960	2,373561
			0,022050	2,377929	0,022050	2,373282
			0,022140	2,377600	0,022140	2,373002
			0,022230	2,377259	0,022230	2,372723
			0,022320	2,376906	0,022320	2,372444
			0,022410	2,376542	0,022410	2,372165
			0,022500	2,376166	0,022500	2,371886
			0,022590	2,375779	0,022590	2,371607
			0,022680	2,375380	0,022680	2,371328
			0,022770	2,374971	0,022770	2,371049
			0,022860	2,374551	0,022860	2,370771
			0,022950	2,374121	0,022950	2,370492
			0,023040	2,373680	0,023040	2,370214
			0,023130	2,373230	0,023130	2,369936
			0,023220	2,372771	0,023220	2,369657
			0,023310	2,372302	0,023310	2,369379
			0,023400	2,371824	0,023400	2,369101
			0,023490	2,371337	0,023490	2,368824
			0,023580	2,370842	0,023580	2,368546
			0,023670	2,370339	0,023670	2,368268
			0,023760	2,369829	0,023760	2,367991
			0,023850	2,369310	0,023850	2,367714
			0,023940	2,368785	0,023940	2,367436
			0,024030	2,368253	0,024030	2,367159
			0,024120	2,367715	0,024120	2,366882
			0,024210	2,367170	0,024210	2,366606
			0,024300	2,366620	0,024300	2,366329
			0,024390	2,366064	0,024390	2,366053
			0,024480	2,365503	0,024480	2,365776
			0,024570	2,364937	0,024570	2,365500
			0,024660	2,364367	0,024660	2,365224
			0,024750	2,363793	0,024750	2,364948
			0,024840	2,363216	0,024840	2,364672
			0,024930	2,362634	0,024930	2,364397
			0,025020	2,362050	0,025020	2,364121
			0,025110	2,361463	0,025110	2,363846
			0,025200	2,360874	0,025200	2,363571
			0,025290	2,360283	0,025290	2,363296
			0,025380	2,359690	0,025380	2,363021
			0,025470	2,359096	0,025470	2,362746
			0,025560	2,358501	0,025560	2,362472
			0,025650	2,357905	0,025650	2,362197
			0,025740	2,357309	0,025740	2,361923
			0,025830	2,356713	0,025830	2,361649
			0,025920	2,356117	0,025920	2,361375
			0,026010	2,355522	0,026010	2,361101
			0,026100	2,354928	0,026100	2,360828
			0,026190	2,354335	0,026190	2,360554
			0,026280	2,353744	0,026280	2,360281
			0,026370	2,353155	0,026370	2,360008
			0,026460	2,352568	0,026460	2,359735
			0,026550	2,351983	0,026550	2,359462
			0,026640	2,351401	0,026640	2,359189
			0,026730	2,350822	0,026730	2,358917
			0,026820	2,350246	0,026820	2,358644
			0,026910	2,349674	0,026910	2,358372
			0,027000	2,349106	0,027000	2,358100
			0,027090	2,348541	0,027090	2,357828
			0,027180	2,347981	0,027180	2,357556
			0,027270	2,347426	0,027270	2,357285
			0,027360	2,346875	0,027360	2,357013
			0,027450	2,346329	0,027450	2,356742
			0,027540	2,345788	0,027540	2,356471
			0,027630	2,345252	0,027630	2,356199
			0,027720	2,344723	0,027720	2,355929
			0,027810	2,344198	0,027810	2,355658
			0,027900	2,343680	0,027900	2,355387
			0,027990	2,343168	0,027990	2,355117
			0,028080	2,342661	0,028080	2,354846
			0,028170	2,342162	0,028170	2,354576
			0,028260	2,341668	0,028260	2,354306
			0,028350	2,341181	0,028350	2,354036
			0,028440	2,340701	0,028440	2,353766
			0,028530	2,340228	0,028530	2,353496
			0,028620	2,339762	0,028620	2,353227
			0,028710	2,339302	0,028710	2,352957
			0,028800	2,338850	0,028800	2,352688
			0,028890	2,338405	0,028890	2,352419
			0,028980	2,337967	0,028980	2,352149
			0,029070	2,337536	0,029070	2,351880
			0,029160	2,337112	0,029160	2,351611
			0,029250	2,336696	0,029250	2,351343
			0,029340	2,336287	0,029340	2,351074
			0,029430	2,335886	0,029430	2,350805
			0,029520	2,335491	0,029520	2,350537
			0,029610	2,335105	0,029610	2,350268
			0,029700	2,334725	0,029700	2,350000
			0,029790	2,334353	0,029790	2,349731
			0,029880	2,333988	0,029880	2,349463
			0,029970	2,333630	0,029970	2,349195
			0,030060	2,333279	0,030060	2,348927
			0,030150	2,332935	0,030150	2,348659
			0,030240	2,332599	0,030240	2,348391
			0,030330	2,332269	0,030330	2,348123
			0,030420	2,331946	0,030420	2,347855
			0,030510	2,331630	0,030510	2,347587
			0,030600	2,331321	0,030600	2,347319
			0,030690	2,331018	0,030690	2,347052
			0,030780	2,330722	0,030780	2,346784
			0,030870	2,330432	0,030870	2,346516
			0,030960	2,330148	0,030960	2,346249
			0,031050	2,329870	0,031050	2,345981
			0,031140	2,329599	0,031140	2,345713
			0,031230	2,329333	0,031230	2,345446
			0,031320	2,329072	0,031320	2,345178
			0,031410	2,328817	0,031410	2,344911
			0,031500	2,328568	0,031500	2,344643
			0,031590	2,328323	0,031590	2,344375
			0,031680	2,328084	0,031680	2,344108
			0,031770	2,327849	0,031770	2,343840
			0,031860	2,327619	0,031860	2,343572
			0,031950	2,327393	0,031950	2,343305
			0,032040	2,327172	0,032040	2,343037
			0,032130	2,326954	0,032130	2,342769
			0,032220	2,326741	0,032220	2,342502
			0,032310	2,326531	0,032310	2,342234
			0,032400	2,326325	0,032400	2,341966
			0,032490	2,326121	0,032490	2,341698
			0,032580	2,325921	0,032580	2,341430
			0,032670	2,325724	0,032670	2,341162
			0,032760	2,325529	0,032760	2,340894
			0,032850	2,325337	0,032850	2,340625
			0,032940	2,325147	0,032940	2,340357
			0,033030	2,324959	0,033030	2,340089
			0,033120	2,324772	0,033120	2,339820
			0,033210	2,324588	0,033210	2,339551
			0,033300	2,324404	0,033300	2,339283
			0,033390	2,324222	0,033390	2,339014
			0,033480	2,324040	0,033480	2,338745
			0,033570	2,323860	0,033570	2,338476
			0,033660	2,323680	0,033660	2,338207
			0,033750	2,323500	0,033750	2,337937
			0,033840	2,323320	0,033840	2,337668
			0,033930	2,323140	0,033930	2,337398
			0,034020	2,322960	0,034020	2,337128
			0,034110	2,322779	0,034110	2,336858
			0,034200	2,322598	0,034200	2,336588
			0,034290	2,322415	0,034290	2,336318
			0,034380	2,322232	0,034380	2,336047
			0,034470	2,322047	0,034470	2,335776
			0,034560	2,321861	0,034560	2,335506
			0,034650	2,321673	0,034650	2,335234
			0,034740	2,321484	0,034740	2,334963
			0,034830	2,321292	0,034830	2,334692
			0,034920	2,321099	0,034920	2,334420
			0,035010	2,320903	0,035010	2,334148
			0,035100	2,320704	0,035100	2,333876
			0,035190	2,320503	0,035190	2,333603
			0,035280	2,320299	0,035280	2,333331
			0,035370	2,320092	0,035370	2,333058
			0,035460	2,319882	0,035460	2,332785
			0,035550	2,319669	0,035550	2,332511
			0,035640	2,319453	0,035640	2,332238
			0,035730	2,319233	0,035730	2,331964
			0,035820	2,319010	0,035820	2,331690
			0,035910	2,318783	0,035910	2,331415
			0,036000	2,318553	0,036000	2,331140
			0,036090	2,318318	0,036090	2,330865
			0,036180	2,318080	0,036180	2,330590
			0,036270	2,317837	0,036270	2,330314
			0,036360	2,317591	0,036360	2,330038
			0,036450	2,317340	0,036450	2,329762
			0,036540	2,317086	0,036540	2,329485
			0,036630	2,316826	0,036630	2,329208
			0,036720	2,316563	0,036720	2,328931
			0,036810	2,316295	0,036810	2,328653
			0,036900	2,316023	0,036900	2,328375
			0,036990	2,315747	0,036990	2,328097
			0,037080	2,315466	0,037080	2,327818
			0,037170	2,315181	0,037170	2,327539
			0,037260	2,314891	0,037260	2,327260
			0,037350	2,314596	0,037350	2,326980
			0,037440	2,314298	0,037440	2,326700
			0,037530	2,313994	0,037530	2,326420
			0,037620	2,313687	0,037620	2,326139
			0,037710	2,313375	0,037710	2,325857
			0,037800	2,313058	0,037800	2,325576
			0,037890	2,312738	0,037890	2,325293
			0,037980	2,312413	0,037980	2,325011
			0,038070	2,312083	0,038070	2,324728
			0,038160	2,311750	0,038160	2,324445
			0,038250	2,311412	0,038250	2,324161
			0,038340	2,311071	0,038340	2,323877
			0,038430	2,310725	0,038430	2,323592
			0,038520	2,310376	0,038520	2,323307
			0,038610	2,310022	0,038610	2,323021
			0,038700	2,309665	0,038700	2,322735
			0,038790	2,309304	0,038790	2,322449
			0,038880	2,308940	0,038880	2,322162
			0,038970	2,308572	0,038970	2,321875
			0,039060	2,308201	0,039060	2,321587
			0,039150	2,307827	0,039150	2,321299
			0,039240	2,307449	0,039240	2,321010
			0,039330	2,307069	0,039330	2,320721
			0,039420	2,306685	0,039420	2,320431
			0,039510	2,306299	0,039510	2,320141
			0,039600	2,305910	0,039600	2,319850
			0,039690	2,305519	0,039690	2,319559
			0,039780	2,305126	0,039780	2,319268
			0,039870	2,304730	0,039870	2,318975
			0,039960	2,304332	0,039960	2,318683
			0,040050	2,303932	0,040050	2,318390
			0,040140	2,303530	0,040140	2,318096
			0,040230	2,303127	0,040230	2,317802
			0,040320	2,302722	0,040320	2,317507
			0,040410	2,302316	0,040410	2,317212
			0,040500	2,301908	0,040500	2,316916
			0,040590	2,301500	0,040590	2,316620
			0,040680	2,301090	0,040680	2,316323
			0,040770	2,300680	0,040770	2,316026
			0,040860	2,300269	0,040860	2,315728
			0,040950	2,299858	0,040950	2,315430
			0,041040	2,299446	0,041040	2,315131
			0,041130	2,299035	0,041130	2,314832
			0,041220	2,298623	0,041220	2,314532
			0,041310	2,298211	0,041310	2,314231
			0,041400	2,297800	0,041400	2,313930
			0,041490	2,297389	0,041490	2,313629
			0,041580	2,296979	0,041580	2,313327
			0,041670	2,296570	0,041670	2,313024
			0,041760	2,296161	0,041760	2,312721
			0,041850	2,295753	0,041850	2,312417
			0,041940	2,295347	0,041940	2,312113
			0,042030	2,294941	0,042030	2,311808
			0,042120	2,294537	0,042120	2,311503
			0,042210	2,294135	0,042210	2,311197
			0,042300	2,293734	0,042300	2,310890
			0,042390	2,293335	0,042390	2,310583
			0,042480	2,292938	0,042480	2,310276
			0,042570	2,292543	0,042570	2,309968
			0,042660	2,292150	0,042660	2,309659
			0,042750	2,291759	0,042750	2,309350
			0,042840	2,291371	0,042840	2,309040
			0,042930	2,290985	0,042930	2,308730
			0,043020	2,290601	0,043020	2,308419
			0,043110	2,290220	0,043110	2,308107
			0,043200	2,289842	0,043200	2,307795
			0,043290	2,289466	0,043290	2,307483
			0,043380	2,289093	0,043380	2,307170
			0,043470	2,288723	0,043470	2,306856
			0,043560	2,288356	0,043560	2,306542
			0,043650	2,287992	0,043650	2,306228
			0,043740	2,287631	0,043740	2,305912
			0,043830	2,287273	0,043830	2,305597
			0,043920	2,286918	0,043920	2,305280
			0,044010	2,286567	0,044010	2,304963
			0,044100	2,286218	0,044100	2,304646
			0,044190	2,285873	0,044190	2,304328
			0,044280	2,285531	0,044280	2,304010
			0,044370	2,285192	0,044370	2,303691
			0,044460	2,284856	0,044460	2,303372
			0,044550	2,284523	0,044550	2,303052
			0,044640	2,284194	0,044640	2,302731
			0,044730	2,283867	0,044730	2,302410
			0,044820	2,283544	0,044820	2,302089
			0,044910	2,283224	0,044910	2,301767
			0,045000	2,282907	0,045000	2,301444
			0,045090	2,282593	0,045090	2,301121
			0,045180	2,282283	0,045180	2,300798
			0,045270	2,281975	0,045270	2,300474
			0,045360	2,281670	0,045360	2,300149
			0,045450	2,281367	0,045450	2,299824
			0,045540	2,281068	0,045540	2,299499
			0,045630	2,280771	0,045630	2,299173
			0,045720	2,280477	0,045720	2,298846
			0,045810	2,280185	0,045810	2,298520
			0,045900	2,279895	0,045900	2,298192
			0,045990	2,279608	0,045990	2,297864
			0,046080	2,279323	0,046080	2,297536
			0,046170	2,279041	0,046170	2,297208
			0,046260	2,278760	0,046260	2,296879
			0,046350	2,278481	0,046350	2,296549
			0,046440	2,278204	0,046440	2,296219
			0,046530	2,277928	0,046530	2,295889
			0,046620	2,277654	0,046620	2,295558
			0,046710	2,277381	0,046710	2,295227
			0,046800	2,277110	0,046800	2,294895
			0,046890	2,276839	0,046890	2,294563
			0,046980	2,276570	0,046980	2,294231
			0,047070	2,276301	0,047070	2,293898
			0,047160	2,276033	0,047160	2,293565
			0,047250	2,275766	0,047250	2,293232
			0,047340	2,275498	0,047340	2,292898
			0,047430	2,275231	0,047430	2,292564
			0,047520	2,274964	0,047520	2,292229
			0,047610	2,274697	0,047610	2,291894
			0,047700	2,274430	0,047700	2,291559
			0,047790	2,274162	0,047790	2,291223
			0,047880	2,273893	0,047880	2,290888
			0,047970	2,273624	0,047970	2,290551
			0,048060	2,273353	0,048060	2,290215
			0,048150	2,273082	0,048150	2,289878
			0,048240	2,272809	0,048240	2,289541
			0,048330	2,272534	0,048330	2,289204
			0,048420	2,272258	0,048420	2,288866
			0,048510	2,271980	0,048510	2,288529
			0,048600	2,271700	0,048600	2,288191
			0,048690	2,271418	0,048690	2,287852
			0,048780	2,271134	0,048780	2,287514
			0,048870	2,270847	0,048870	2,287175
			0,048960	2,270558	0,048960	2,286836
			0,049050	2,270266	0,049050	2,286497
			0,049140	2,269970	0,049140	2,286158
			0,049230	2,269672	0,049230	2,285818
			0,049320	2,269370	0,049320	2,285478
			0,049410	2,269065	0,049410	2,285139
			0,049500	2,268757	0,049500	2,284799
			0,049590	2,268445	0,049590	2,284458
			0,049680	2,268129	0,049680	2,284118
			0,049770	2,267809	0,049770	2,283778
			0,049860	2,267485	0,049860	2,283437
			0,049950	2,267156	0,049950	2,283097
			0,050040	2,266824	0,050040	2,282756
			0,050130	2,266487	0,050130	2,282415
			0,050220	2,266145	0,050220	2,282074
			0,050310	2,265799	0,050310	2,281734
			0,050400	2,265448	0,050400	2,281393
			0,050490	2,265092	0,050490	2,281052
			0,050580	2,264731	0,050580	2,280711
			0,050670	2,264365	0,050670	2,280370
			0,050760	2,263994	0,050760	2,280029
			0,050850	2,263618	0,050850	2,279688
			0,050940	2,263237	0,050940	2,279347
			0,051030	2,262850	0,051030	2,279006
			0,051120	2,262459	0,051120	2,278665
			0,051210	2,262062	0,051210	2,278324
			0,051300	2,261659	0,051300	2,277983
			0,051390	2,261251	0,051390	2,277643
			0,051480	2,260838	0,051480	2,277302
			0,051570	2,260419	0,051570	2,276962
			0,051660	2,259995	0,051660	2,276621
			0,051750	2,259565	0,051750	2,276281
			0,051840	2,259130	0,051840	2,275941
			0,051930	2,258690	0,051930	2,275601
			0,052020	2,258245	0,052020	2,275262
			0,052110	2,257794	0,052110	2,274922
			0,052200	2,257337	0,052200	2,274583
			0,052290	2,256876	0,052290	2,274243
			0,052380	2,256410	0,052380	2,273904
			0,052470	2,255938	0,052470	2,273566
			0,052560	2,255462	0,052560	2,273227
			0,052650	2,254980	0,052650	2,272889
			0,052740	2,254494	0,052740	2,272551
			0,052830	2,254003	0,052830	2,272213
			0,052920	2,253508	0,052920	2,271876
			0,053010	2,253008	0,053010	2,271539
			0,053100	2,252504	0,053100	2,271202
			0,053190	2,251996	0,053190	2,270866
			0,053280	2,251484	0,053280	2,270530
			0,053370	2,250968	0,053370	2,270194
			0,053460	2,250448	0,053460	2,269859
			0,053550	2,249925	0,053550	2,269524
			0,053640	2,249398	0,053640	2,269189
			0,053730	2,248868	0,053730	2,268855
			0,053820	2,248336	0,053820	2,268521
			0,053910	2,247800	0,053910	2,268188
			0,054000	2,247262	0,054000	2,267855
			0,054090	2,246722	0,054090	2,267522
			0,054180	2,246179	0,054180	2,267190
			0,054270	2,245635	0,054270	2,266859
			0,054360	2,245089	0,054360	2,266528
			0,054450	2,244542	0,054450	2,266197
			0,054540	2,243993	0,054540	2,265867
			0,054630	2,243444	0,054630	2,265538
			0,054720	2,242894	0,054720	2,265209
			0,054810	2,242343	0,054810	2,264881
			0,054900	2,241793	0,054900	2,264553
			0,054990	2,241242	0,054990	2,264226
			0,055080	2,240692	0,055080	2,263899
			0,055170	2,240143	0,055170	2,263573
			0,055260	2,239595	0,055260	2,263248
			0,055350	2,239048	0,055350	2,262923
			0,055440	2,238502	0,055440	2,262599
			0,055530	2,237959	0,055530	2,262276
			0,055620	2,237417	0,055620	2,261953
			0,055710	2,236878	0,055710	2,261631
			0,055800	2,236342	0,055800	2,261309
			0,055890	2,235809	0,055890	2,260989
			0,055980	2,235279	0,055980	2,260669
			0,056070	2,234753	0,056070	2,260349
			0,056160	2,234231	0,056160	2,260031
			0,056250	2,233713	0,056250	2,259713
			0,056340	2,233200	0,056340	2,259396
			0,056430	2,232691	0,056430	2,259080
			0,056520	2,232188	0,056520	2,258764
			0,056610	2,231690	0,056610	2,258450
			0,056700	2,231198	0,056700	2,258136
			0,056790	2,230713	0,056790	2,257823
			0,056880	2,230233	0,056880	2,257510
			0,056970	2,229760	0,056970	2,257199
			0,057060	2,229295	0,057060	2,256888
			0,057150	2,228836	0,057150	2,256579
			0,057240	2,228385	0,057240	2,256270
			0,057330	2,227942	0,057330	2,255962
			0,057420	2,227507	0,057420	2,255655
			0,057510	2,227080	0,057510	2,255349
			0,057600	2,226662	0,057600	2,255043
			0,057690	2,226252	0,057690	2,254739
			0,057780	2,225852	0,057780	2,254435
			0,057870	2,225461	0,057870	2,254133
			0,057960	2,225080	0,057960	2,253831
			0,058050	2,224709	0,058050	2,253531
			0,058140	2,224348	0,058140	2,253231
			0,058230	2,223997	0,058230	2,252932
			0,058320	2,223656	0,058320	2,252634
			0,058410	2,223326	0,058410	2,252337
			0,058500	2,223007	0,058500	2,252042
			0,058590	2,222700	0,058590	2,251747
			0,058680	2,222403	0,058680	2,251453
			0,058770	2,222118	0,058770	2,251160
			0,058860	2,221844	0,058860	2,250868
			0,058950	2,221582	0,058950	2,250577
			0,059040	2,221332	0,059040	2,250288
			0,059130	2,221094	0,059130	2,249999
			0,059220	2,220868	0,059220	2,249711
			0,059310	2,220654	0,059310	2,249425
			0,059400	2,220452	0,059400	2,249139
			0,059490	2,220262	0,059490	2,248854
			0,059580	2,220085	0,059580	2,248571
			0,059670	2,219921	0,059670	2,248289
			0,059760	2,219769	0,059760	2,248007
			0,059850	2,219629	0,059850	2,247727
			0,059940	2,219502	0,059940	2,247448
			0,060030	2,219387	0,060030	2,247170
			0,060120	2,219285	0,060120	2,246893
			0,060210	2,219195	0,060210	2,246617
			0,060300	2,219118	0,060300	2,246342
			0,060390	2,219053	0,060390	2,246068
			0,060480	2,219000	0,060480	2,245795
			0,060570	2,218960	0,060570	2,245524
			0,060660	2,218931	0,060660	2,245253
			0,060750	2,218915	0,060750	2,244984
			0,060840	2,218910	0,060840	2,244716
			0,060930	2,218918	0,060930	2,244449
			0,061020	2,218937	0,061020	2,244182
			0,061110	2,218967	0,061110	2,243918
			0,061200	2,219008	0,061200	2,243654
			0,061290	2,219061	0,061290	2,243391
			0,061380	2,219124	0,061380	2,243129
			0,061470	2,219199	0,061470	2,242869
			0,061560	2,219283	0,061560	2,242609
			0,061650	2,219378	0,061650	2,242351
			0,061740	2,219482	0,061740	2,242094
			0,061830	2,219596	0,061830	2,241838
			0,061920	2,219719	0,061920	2,241583
			0,062010	2,219852	0,062010	2,241329
			0,062100	2,219993	0,062100	2,241076
			0,062190	2,220142	0,062190	2,240824
			0,062280	2,220299	0,062280	2,240573
			0,062370	2,220464	0,062370	2,240324
			0,062460	2,220637	0,062460	2,240075
			0,062550	2,220816	0,062550	2,239828
			0,062640	2,221002	0,062640	2,239581
			0,062730	2,221193	0,062730	2,239336
			0,062820	2,221391	0,062820	2,239092
			0,062910	2,221594	0,062910	2,238849
			0,063000	2,221801	0,063000	2,238606
			0,063090	2,222013	0,063090	2,238365
			0,063180	2,222229	0,063180	2,238125
			0,063270	2,222449	0,063270	2,237886
			0,063360	2,222671	0,063360	2,237648
			0,063450	2,222896	0,063450	2,237411
			0,063540	2,223122	0,063540	2,237175
			0,063630	2,223351	0,063630	2,236939
			0,063720	2,223580	0,063720	2,236705
			0,063810	2,223810	0,063810	2,236472
			0,063900	2,224039	0,063900	2,236240
			0,063990	2,224268	0,063990	2,236009
			0,064080	2,224496	0,064080	2,235778
			0,064170	2,224723	0,064170	2,235549
			0,064260	2,224947	0,064260	2,235320
			0,064350	2,225168	0,064350	2,235093
			0,064440	2,225386	0,064440	2,234866
			0,064530	2,225599	0,064530	2,234640
			0,064620	2,225809	0,064620	2,234415
			0,064710	2,226013	0,064710	2,234191
			0,064800	2,226212	0,064800	2,233968
			0,064890	2,226405	0,064890	2,233745
			0,064980	2,226591	0,064980	2,233523
			0,065070	2,226769	0,065070	2,233303
			0,065160	2,226940	0,065160	2,233082
			0,065250	2,227102	0,065250	2,232863
			0,065340	2,227255	0,065340	2,232644
			0,065430	2,227398	0,065430	2,232426
			0,065520	2,227531	0,065520	2,232209
			0,065610	2,227654	0,065610	2,231993
			0,065700	2,227765	0,065700	2,231777
			0,065790	2,227864	0,065790	2,231562
			0,065880	2,227951	0,065880	2,231347
			0,065970	2,228024	0,065970	2,231133
			0,066060	2,228085	0,066060	2,230920
			0,066150	2,228131	0,066150	2,230707
			0,066240	2,228162	0,066240	2,230495
			0,066330	2,228179	0,066330	2,230283
			0,066420	2,228179	0,066420	2,230072
			0,066510	2,228164	0,066510	2,229861
			0,066600	2,228132	0,066600	2,229651
			0,066690	2,228083	0,066690	2,229441
			0,066780	2,228016	0,066780	2,229232
			0,066870	2,227931	0,066870	2,229023
			0,066960	2,227827	0,066960	2,228814
			0,067050	2,227705	0,067050	2,228606
			0,067140	2,227563	0,067140	2,228398
			0,067230	2,227401	0,067230	2,228191
			0,067320	2,227219	0,067320	2,227983
			0,067410	2,227017	0,067410	2,227776
			0,067500	2,226793	0,067500	2,227569
			0,067590	2,226548	0,067590	2,227363
			0,067680	2,226282	0,067680	2,227156
			0,067770	2,225993	0,067770	2,226950
			0,067860	2,225682	0,067860	2,226744
			0,067950	2,225349	0,067950	2,226538
			0,068040	2,224992	0,068040	2,226332
			0,068130	2,224612	0,068130	2,226126
			0,068220	2,224209	0,068220	2,225920
			0,068310	2,223782	0,068310	2,225714
			0,068400	2,223332	0,068400	2,225508
			0,068490	2,222857	0,068490	2,225301
			0,068580	2,222358	0,068580	2,225095
			0,068670	2,221835	0,068670	2,224889
			0,068760	2,221288	0,068760	2,224682
			0,068850	2,220715	0,068850	2,224475
			0,068940	2,220119	0,068940	2,224268
			0,069030	2,219497	0,069030	2,224061
			0,069120	2,218851	0,069120	2,223854
			0,069210	2,218180	0,069210	2,223646
			0,069300	2,217485	0,069300	2,223437
			0,069390	2,216764	0,069390	2,223229
			0,069480	2,216020	0,069480	2,223020
			0,069570	2,215250	0,069570	2,222810
			0,069660	2,214456	0,069660	2,222600
			0,069750	2,213638	0,069750	2,222389
			0,069840	2,212796	0,069840	2,222178
			0,069930	2,211930	0,069930	2,221967
			0,070020	2,211040	0,070020	2,221754
			0,070110	2,210126	0,070110	2,221541
			0,070200	2,209189	0,070200	2,221327
			0,070290	2,208229	0,070290	2,221113
			0,070380	2,207247	0,070380	2,220897
			0,070470	2,206242	0,070470	2,220681
			0,070560	2,205214	0,070560	2,220464
			0,070650	2,204166	0,070650	2,220247
			0,070740	2,203095	0,070740	2,220028
			0,070830	2,202005	0,070830	2,219808
			0,070920	2,200893	0,070920	2,219587
			0,071010	2,199762	0,071010	2,219366
			0,071100	2,198611	0,071100	2,219143
			0,071190	2,197441	0,071190	2,218919
			0,071280	2,196253	0,071280	2,218694
			0,071370	2,195047	0,071370	2,218467
			0,071460	2,193823	0,071460	2,218240
			0,071550	2,192583	0,071550	2,218011
			0,071640	2,191327	0,071640	2,217781
			0,071730	2,190056	0,071730	2,217550
			0,071820	2,188770	0,071820	2,217317
			0,071910	2,187470	0,071910	2,217083
			0,072000	2,186156	0,072000	2,216847
			0,072090	2,184830	0,072090	2,216610
			0,072180	2,183492	0,072180	2,216371
			0,072270	2,182144	0,072270	2,216131
			0,072360	2,180785	0,072360	2,215889
			0,072450	2,179416	0,072450	2,215646
			0,072540	2,178039	0,072540	2,215401
			0,072630	2,176655	0,072630	2,215154
			0,072720	2,175263	0,072720	2,214905
			0,072810	2,173866	0,072810	2,214655
			0,072900	2,172464	0,072900	2,214402
			0,072990	2,171057	0,072990	2,214148
			0,073080	2,169648	0,073080	2,213892
			0,073170	2,168236	0,073170	2,213634
			0,073260	2,166823	0,073260	2,213374
			0,073350	2,165410	0,073350	2,213112
			0,073440	2,163997	0,073440	2,212848
			0,073530	2,162587	0,073530	2,212582
			0,073620	2,161179	0,073620	2,212313
			0,073710	2,159775	0,073710	2,212043
			0,073800	2,158376	0,073800	2,211770
			0,073890	2,156983	0,073890	2,211495
			0,073980	2,155596	0,073980	2,211218
			0,074070	2,154218	0,074070	2,210939
			0,074160	2,152849	0,074160	2,210657
			0,074250	2,151491	0,074250	2,210372
			0,074340	2,150143	0,074340	2,210086
			0,074430	2,148808	0,074430	2,209796
			0,074520	2,147487	0,074520	2,209505
			0,074610	2,146181	0,074610	2,209211
			0,074700	2,144890	0,074700	2,208914
			0,074790	2,143616	0,074790	2,208615
			0,074880	2,142360	0,074880	2,208313
			0,074970	2,141123	0,074970	2,208008
			0,075060	2,139906	0,075060	2,207701
			0,075150	2,138711	0,075150	2,207391
			0,075240	2,137538	0,075240	2,207078
			0,075330	2,136389	0,075330	2,206762
			0,075420	2,135264	0,075420	2,206444
			0,075510	2,134166	0,075510	2,206123
			0,075600	2,133094	0,075600	2,205799
			0,075690	2,132050	0,075690	2,205472
			0,075780	2,131035	0,075780	2,205142
			0,075870	2,130050	0,075870	2,204810
			0,075960	2,129097	0,075960	2,204474
			0,076050	2,128176	0,076050	2,204135
			0,076140	2,127288	0,076140	2,203793
			0,076230	2,126435	0,076230	2,203449
			0,076320	2,125616	0,076320	2,203101
			0,076410	2,124835	0,076410	2,202750
			0,076500	2,124091	0,076500	2,202396
			0,076590	2,123385	0,076590	2,202039
			0,076680	2,122718	0,076680	2,201679
			0,076770	2,122092	0,076770	2,201315
			0,076860	2,121507	0,076860	2,200949
			0,076950	2,120965	0,076950	2,200579
			0,077040	2,120465	0,077040	2,200206
			0,077130	2,120010	0,077130	2,199830
			0,077220	2,119599	0,077220	2,199451
			0,077310	2,119234	0,077310	2,199069
			0,077400	2,118915	0,077400	2,198683
			0,077490	2,118644	0,077490	2,198294
			0,077580	2,118421	0,077580	2,197902
			0,077670	2,118247	0,077670	2,197506
			0,077760	2,118122	0,077760	2,197107
			0,077850	2,118048	0,077850	2,196705
			0,077940	2,118025	0,077940	2,196300
			0,078030	2,118053	0,078030	2,195892
			0,078120	2,118134	0,078120	2,195480
			0,078210	2,118267	0,078210	2,195065
			0,078300	2,118454	0,078300	2,194647
			0,078390	2,118695	0,078390	2,194225
			0,078480	2,118990	0,078480	2,193801
			0,078570	2,119341	0,078570	2,193373
			0,078660	2,119747	0,078660	2,192941
			0,078750	2,120208	0,078750	2,192507
			0,078840	2,120726	0,078840	2,192070
			0,078930	2,121301	0,078930	2,191629
			0,079020	2,121933	0,079020	2,191185
			0,079110	2,122622	0,079110	2,190738
			0,079200	2,123368	0,079200	2,190288
			0,079290	2,124173	0,079290	2,189835
			0,079380	2,125035	0,079380	2,189379
			0,079470	2,125956	0,079470	2,188920
			0,079560	2,126935	0,079560	2,188457
			0,079650	2,127972	0,079650	2,187992
			0,079740	2,129068	0,079740	2,187524
			0,079830	2,130222	0,079830	2,187053
			0,079920	2,131435	0,079920	2,186580
			0,080010	2,132707	0,080010	2,186103
			0,080100	2,134036	0,080100	2,185624
			0,080190	2,135425	0,080190	2,185142
			0,080280	2,136871	0,080280	2,184657
			0,080370	2,138376	0,080370	2,184170
			0,080460	2,139938	0,080460	2,183680
			0,080550	2,141558	0,080550	2,183188
			0,080640	2,143235	0,080640	2,182693
			0,080730	2,144970	0,080730	2,182196
			0,080820	2,146761	0,080820	2,181697
			0,080910	2,148608	0,080910	2,181195
			0,081000	2,150511	0,081000	2,180691
			0,081090	2,152470	0,081090	2,180185
			0,081180	2,154483	0,081180	2,179677
			0,081270	2,156551	0,081270	2,179168
			0,081360	2,158673	0,081360	2,178656
			0,081450	2,160848	0,081450	2,178143
			0,081540	2,163076	0,081540	2,177628
			0,081630	2,165356	0,081630	2,177111
			0,081720	2,167687	0,081720	2,176593
			0,081810	2,170069	0,081810	2,176073
			0,081900	2,172500	0,081900	2,175553
			0,081990	2,174981	0,081990	2,175031
			0,082080	2,177510	0,082080	2,174508
			0,082170	2,180087	0,082170	2,173984
			0,082260	2,182710	0,082260	2,173459
			0,082350	2,185379	0,082350	2,172934
			0,082440	2,188092	0,082440	2,172408
			0,082530	2,190850	0,082530	2,171881
			0,082620	2,193650	0,082620	2,171355
			0,082710	2,196492	0,082710	2,170828
			0,082800	2,199375	0,082800	2,170301
			0,082890	2,202297	0,082890	2,169774
			0,082980	2,205259	0,082980	2,169248
			0,083070	2,208257	0,083070	2,168722
			0,083160	2,211292	0,083160	2,168196
			0,083250	2,214363	0,083250	2,167671
			0,083340	2,217467	0,083340	2,167147
			0,083430	2,220604	0,083430	2,166625
			0,083520	2,223773	0,083520	2,166103
			0,083610	2,226972	0,083610	2,165583
			0,083700	2,230200	0,083700	2,165065
			0,083790	2,233455	0,083790	2,164548
			0,083880	2,236738	0,083880	2,164034
			0,083970	2,240045	0,083970	2,163521
			0,084060	2,243376	0,084060	2,163011
			0,084150	2,246730	0,084150	2,162504
			0,084240	2,250105	0,084240	2,162000
			0,084330	2,253499	0,084330	2,161498
			0,084420	2,256912	0,084420	2,161000
			0,084510	2,260342	0,084510	2,160506
			0,084600	2,263787	0,084600	2,160015
			0,084690	2,267247	0,084690	2,159528
			0,084780	2,270719	0,084780	2,159046
			0,084870	2,274202	0,084870	2,158568
			0,084960	2,277694	0,084960	2,158095
			0,085050	2,281196	0,085050	2,157627
			0,085140	2,284703	0,085140	2,157164
			0,085230	2,288217	0,085230	2,156707
			0,085320	2,291734	0,085320	2,156256
			0,085410	2,295253	0,085410	2,155811
			0,085500	2,298774	0,085500	2,155372
			0,085590	2,302294	0,085590	2,154940
			0,085680	2,305811	0,085680	2,154516
			0,085770	2,309326	0,085770	2,154099
			0,085860	2,312835	0,085860	2,153689
			0,085950	2,316338	0,085950	2,153288
			0,086040	2,319833	0,086040	2,152895
			0,086130	2,323319	0,086130	2,152511
			0,086220	2,326793	0,086220	2,152136
			0,086310	2,330256	0,086310	2,151770
			0,086400	2,333705	0,086400	2,151414
			0,086490	2,337138	0,086490	2,151069
			0,086580	2,340555	0,086580	2,150734
			0,086670	2,343954	0,086670	2,150410
			0,086760	2,347334	0,086760	2,150098
			0,086850	2,350693	0,086850	2,149797
			0,086940	2,354030	0,086940	2,149509
			0,087030	2,357344	0,087030	2,149233
			0,087120	2,360632	0,087120	2,148970
			0,087210	2,363895	0,087210	2,148721
			0,087300	2,367130	0,087300	2,148486
			0,087390	2,370336	0,087390	2,148265
			0,087480	2,373512	0,087480	2,148059
			0,087570	2,376658	0,087570	2,147868
			0,087660	2,379770	0,087660	2,147694
			0,087750	2,382849	0,087750	2,147535
			0,087840	2,385893	0,087840	2,147393
			0,087930	2,388901	0,087930	2,147269
			0,088020	2,391872	0,088020	2,147163
			0,088110	2,394805	0,088110	2,147075
			0,088200	2,397698	0,088200	2,147005
			0,088290	2,400551	0,088290	2,146956
			0,088380	2,403362	0,088380	2,146926
			0,088470	2,406131	0,088470	2,146917
			0,088560	2,408856	0,088560	2,146929
			0,088650	2,411537	0,088650	2,146963
			0,088740	2,414172	0,088740	2,147019
			0,088830	2,416762	0,088830	2,147098
			0,088920	2,419304	0,088920	2,147201
			0,089010	2,421798	0,089010	2,147328
			0,089100	2,424243	0,089100	2,147480
			0,089190	2,426639	0,089190	2,147657
			0,089280	2,428984	0,089280	2,147860
			0,089370	2,431279	0,089370	2,148090
			0,089460	2,433521	0,089460	2,148348
			0,089550	2,435711	0,089550	2,148634
			0,089640	2,437849	0,089640	2,148949
			0,089730	2,439932	0,089730	2,149293
			0,089820	2,441962	0,089820	2,149668
			0,089910	2,443937	0,089910	2,150073

